Dividing Wavelength (nm)	Counts (n)	Blue Motor Position (mm): 48.800000	Red Motor Position (mm): 0.000000	
326.493990	0.999263
326.888308	0.999263
327.282561	0.999263
327.676750	1.000648
328.070874	1.000958
328.464933	1.000870
328.858929	1.001231
329.252859	0.999603
329.646726	0.998671
330.040528	1.000343
330.434265	0.999387
330.827938	0.999582
331.221547	0.999835
331.615091	1.000875
332.008571	1.000842
332.401986	0.999463
332.795338	1.000231
333.188625	1.000860
333.581847	0.999374
333.975006	0.999717
334.368100	0.999899
334.761129	0.998171
335.154095	1.000633
335.546996	0.999999
335.939833	0.999707
336.332606	1.000083
336.725315	0.998571
337.117960	0.999548
337.510540	0.999162
337.903056	0.999196
338.295508	1.001403
338.687896	0.999586
339.080220	0.999939
339.472480	0.998797
339.864676	0.999850
340.256807	0.998141
340.648875	1.001152
341.040879	0.999067
341.432818	1.000117
341.824694	0.999631
342.216506	1.000157
342.608253	1.000409
342.999937	0.999787
343.391557	1.000173
343.783113	1.002455
344.174605	0.999592
344.566033	0.999788
344.957397	1.000141
345.348697	1.001050
345.739934	1.000865
346.131106	1.000482
346.522215	0.999481
346.913260	0.999929
347.304241	0.999826
347.695159	1.000985
348.086012	1.000727
348.476802	0.999514
348.867528	1.000100
349.258191	1.000229
349.648789	1.000564
350.039324	0.998836
350.429796	0.999039
350.820203	0.998514
351.210548	1.000679
351.600828	1.000494
351.991045	1.000120
352.381198	1.000231
352.771288	1.000636
353.161314	1.000528
353.551276	0.999293
353.941175	0.998380
354.331010	0.999485
354.720782	1.000653
355.110490	0.999726
355.500135	0.999996
355.889717	0.999649
356.279235	1.000430
356.668689	0.999294
357.058080	0.999226
357.447408	0.998234
357.836672	0.999837
358.225873	0.999116
358.615010	0.999370
359.004084	0.999126
359.393095	1.000817
359.782043	0.999296
360.170927	1.001274
360.559748	0.999286
360.948505	0.999882
361.337199	0.999398
361.725830	1.000251
362.114398	1.000412
362.502903	0.998348
362.891344	0.998488
363.279722	0.997921
363.668037	1.000068
364.056289	0.999689
364.444478	1.001386
364.832603	0.999355
365.220665	0.998932
365.608665	0.999856
365.996601	0.999825
366.384474	0.999009
366.772284	0.999781
367.160031	0.997490
367.547715	0.998913
367.935336	0.998024
368.322893	0.997433
368.710388	0.996271
369.097820	0.995422
369.485189	0.993766
369.872495	0.995321
370.259738	0.994186
370.646918	0.993376
371.034035	0.992302
371.421090	0.992591
371.808081	0.991084
372.195010	0.990365
372.581875	0.990166
372.968678	0.988358
373.355418	0.988255
373.742096	0.985642
374.128710	0.986360
374.515262	0.986954
374.901751	0.987412
375.288177	0.985851
375.674540	0.986714
376.060841	0.985199
376.447079	0.985284
376.833254	0.985041
377.219367	0.985470
377.605417	0.984564
377.991404	0.985797
378.377329	0.986102
378.763191	0.985835
379.148991	0.987337
379.534727	0.987547
379.920402	0.987136
380.306013	0.987530
380.691563	0.989636
381.077049	0.988166
381.462474	0.989648
381.847835	0.988512
382.233134	0.991127
382.618371	0.992792
383.003545	0.992070
383.388657	0.992173
383.773706	0.993856
384.158693	0.993744
384.543618	0.996290
384.928480	0.995278
385.313280	0.996678
385.698017	0.996212
386.082692	0.996684
386.467305	0.995515
386.851856	0.999275
387.236344	0.998178
387.620770	0.999494
388.005133	1.000003
388.389435	0.998944
388.773674	0.999718
389.157851	0.998969
389.541965	1.000187
389.926018	1.000284
390.310008	1.000884
390.693936	1.000578
391.077802	1.001110
391.461606	1.000242
391.845348	1.000639
392.229027	0.999044
392.612645	1.001456
392.996200	1.001276
393.379694	0.999911
393.763125	1.001154
394.146494	1.000748
394.529801	0.999748
394.913047	1.000027
395.296230	1.000365
395.679351	1.000334
396.062410	1.000525
396.445408	1.001238
396.828343	1.001660
397.211217	1.000255
397.594028	0.999858
397.976778	1.000338
398.359466	1.000763
398.742092	1.001092
399.124656	1.000347
399.507158	1.000269
399.889598	1.001320
400.271977	1.000662
400.654294	0.999468
401.036549	1.001531
401.418742	1.001154
401.800874	1.000936
402.182944	1.000848
402.564952	1.000976
402.946898	1.001792
403.328783	1.001809
403.710606	1.000428
404.092367	1.000571
404.474067	1.001562
404.855705	1.001849
405.237282	1.000525
405.618797	1.000958
406.000250	1.001011
406.381642	1.000357
406.762972	1.000544
407.144240	1.000600
407.525447	1.000422
407.906593	1.001104
408.287677	0.999809
408.668700	1.001242
409.049661	1.000916
409.430560	0.999702
409.811399	1.000125
410.192176	1.000380
410.572891	1.001132
410.953545	1.000958
411.334138	1.001238
411.714669	1.000584
412.095139	1.001464
412.475547	1.001015
412.855894	1.001042
413.236180	1.000986
413.616405	1.000642
413.996568	1.000405
414.376670	1.000596
414.756711	1.000721
415.136691	1.000953
415.516609	1.000353
415.896466	1.001498
416.276262	1.000396
416.655997	1.001160
417.035670	1.000676
417.415283	1.000600
417.794834	1.001380
418.174324	1.001153
418.553753	1.000202
418.933121	1.000920
419.312428	1.001420
419.691674	1.001860
420.070859	1.001482
420.449983	1.000967
420.829045	1.000832
421.208047	1.001852
421.586988	1.000495
421.965867	0.999566
422.344686	1.000787
422.723444	1.000422
423.102141	1.000953
423.480777	1.000332
423.859352	1.000614
424.237866	1.000921
424.616319	1.001079
424.994712	1.001723
425.373044	1.001087
425.751314	1.001226
426.129524	1.001569
426.507673	1.000581
426.885762	1.000361
427.263789	1.000659
427.641756	1.000750
428.019662	1.001674
428.397508	1.000968
428.775292	1.000580
429.153016	1.000546
429.530679	1.000865
429.908282	1.001489
430.285824	1.000362
430.663305	1.000771
431.040726	1.000715
431.418086	1.000644
431.795385	1.001493
432.172624	1.001956
432.549802	1.000987
432.926920	1.000753
433.303977	1.001108
433.680974	1.001567
434.057910	1.000906
434.434786	1.000984
434.811601	1.001808
435.188355	1.001354
435.565050	1.001543
435.941683	1.001073
436.318257	1.000280
436.694770	1.001415
437.071222	1.001872
437.447614	1.000945
437.823946	1.001402
438.200218	1.001458
438.576429	1.000812
438.952580	1.000856
439.328670	1.000160
439.704700	1.000596
440.080670	1.002216
440.456580	1.001374
440.832429	1.001120
441.208218	1.001294
441.583947	1.002045
441.959616	1.000433
442.335224	1.001926
442.710773	1.001811
443.086261	1.001362
443.461689	1.000586
443.837057	1.000607
444.212365	1.002013
444.587612	1.001964
444.962800	1.001227
445.337927	1.001252
445.712995	1.000923
446.088002	1.000801
446.462949	1.001397
446.837837	1.002481
447.212664	1.001310
447.587431	1.001405
447.962139	1.001050
448.336786	1.000152
448.711374	1.000798
449.085901	1.002343
449.460369	1.001506
449.834776	1.000777
450.209124	1.001526
450.583412	1.001309
450.957640	1.001122
451.331808	1.001658
451.705917	1.000750
452.079965	1.001576
452.453954	1.001233
452.827883	1.002099
453.201752	1.001904
453.575562	1.000833
453.949311	1.002091
454.323001	1.001370
454.696632	1.001833
455.070202	1.001696
455.443713	1.001085
455.817164	1.001442
456.190556	1.001773
456.563888	1.002058
456.937160	1.002199
457.310373	1.000684
457.683526	1.001638
458.056619	1.002355
458.429653	1.001235
458.802628	1.000508
459.175542	1.001626
459.548398	1.000757
459.921194	1.001408
460.293930	1.001804
460.666607	1.001772
461.039224	1.001315
461.411782	1.001177
461.784280	1.000670
462.156719	1.001717
462.529099	1.001569
462.901419	1.001961
463.273680	1.001080
463.645882	1.001567
464.018024	1.002067
464.390106	1.001233
464.762130	1.001435
465.134094	1.001661
465.505999	1.001667
465.877845	1.001300
466.249631	1.001122
466.621358	1.000391
466.993026	1.001287
467.364634	1.001463
467.736184	1.001958
468.107674	1.002080
468.479105	1.001832
468.850477	1.001370
469.221790	1.002264
469.593043	1.001195
469.964238	1.001227
470.335373	1.001004
470.706449	1.001604
471.077467	1.001371
471.448425	1.001329
471.819324	1.001679
472.190164	1.001386
472.560945	1.001113
472.931667	1.002008
473.302330	1.001130
473.672934	1.002342
474.043479	1.001708
474.413965	1.001071
474.784393	1.001876
475.154761	1.001279
475.525070	1.001917
475.895321	1.001968
476.265513	1.001937
476.635645	1.001896
477.005719	1.001498
477.375734	1.001053
477.745691	1.001527
478.115588	1.001084
478.485427	1.001809
478.855207	1.001426
479.224928	1.001102
479.594591	1.001811
479.964194	1.001028
480.333739	1.001956
480.703226	1.000938
481.072653	1.001627
481.442022	1.001624
481.811333	1.001039
482.180584	1.001357
482.549777	1.002051
482.918912	1.002041
483.287988	1.001858
483.657005	1.001569
484.025964	1.001939
484.394864	1.001096
484.763706	1.001523
485.132489	1.001551
485.501213	1.001820
485.869879	1.001247
486.238487	1.000670
486.607036	1.001827
486.975527	1.001309
487.343959	1.001324
487.712333	1.001716
488.080648	1.001033
488.448905	1.001293
488.817104	1.001481
489.185244	1.001497
489.553326	1.001517
489.921350	1.001718
490.289315	1.001589
490.657222	1.000984
491.025070	1.001434
491.392861	1.001692
491.760593	1.001351
492.128267	1.001033
492.495883	1.001224
492.863440	1.001596
493.230939	1.001280
493.598380	1.001925
493.965763	1.001916
494.333088	1.000841
494.700354	1.001222
495.067563	1.001348
495.434713	1.001830
495.801805	1.001656
496.168839	1.002045
496.535815	1.001380
496.902733	1.001400
497.269593	1.001322
497.636395	1.000850
498.003139	1.001417
498.369825	1.001617
498.736453	1.001840
499.103023	1.001754
499.469535	1.001272
499.835989	1.002248
500.202385	1.001369
500.568723	1.001539
500.935003	1.001602
501.301226	1.002125
501.667390	1.000756
502.033497	1.001559
502.399546	1.001713
502.765537	1.001358
503.131470	1.001528
503.497345	1.001411
503.863163	1.001800
504.228923	1.000887
504.594625	1.001353
504.960269	1.001899
505.325856	1.002231
505.691385	1.002002
506.056856	1.001309
506.422270	1.001407
506.787625	1.001484
507.152924	1.001871
507.518164	1.000803
507.883347	1.000951
508.248472	1.001606
508.613540	1.001701
508.978550	1.001699
509.343503	1.001038
509.708398	1.002108
510.073236	1.002257
510.438016	1.001208
510.802738	1.000756
511.167403	1.001683
511.532010	1.001434
511.896561	1.001393
512.261053	1.001271
512.625488	1.002252
512.989866	1.002276
513.354186	1.001417
513.718449	1.001701
514.082655	1.000856
514.446803	1.001922
514.810894	1.001791
515.174927	1.001624
515.538904	1.001824
515.902822	1.001689
516.266684	1.001366
516.630488	1.001667
516.994235	1.001954
517.357925	1.002034
517.721558	1.001600
518.085133	1.001055
518.448651	1.001339
518.812112	1.002096
519.175516	1.001557
519.538863	1.001387
519.902152	1.001922
520.265385	1.001999
520.628560	1.001113
520.991678	1.001236
521.354739	1.002193
521.717743	1.001571
522.080690	1.001020
522.443580	1.002104
522.806413	1.001115
523.169189	1.002341
523.531908	1.000670
523.894569	1.002057
524.257174	1.001548
524.619722	1.001568
524.982213	1.001745
525.344647	1.001310
525.707025	1.001574
526.069345	1.000798
526.431608	1.001248
526.793815	1.002082
527.155964	1.001601
527.518057	1.001993
527.880093	1.001359
528.242072	1.001280
528.603995	1.000955
528.965860	1.002032
529.327669	1.001334
529.689421	1.001067
530.051117	1.001444
530.412755	1.001544
530.774337	1.001199
531.135862	1.002016
531.497331	1.001450
531.858743	1.002059
532.220098	1.001086
532.581396	1.002072
532.942638	1.001795
533.303824	1.002021
533.664953	1.001650
534.026025	1.002154
534.387040	1.001772
534.747999	1.001465
535.108902	1.001324
535.469748	1.002237
535.830537	1.002380
536.191270	1.001754
536.551947	1.001163
536.912567	1.001469
537.273131	1.001806
537.633638	1.001669
537.994089	1.001790
538.354483	1.001237
538.714821	1.001553
539.075103	1.001793
539.435328	1.001899
539.795497	1.001936
540.155609	1.001557
540.515665	1.001849
540.875665	1.001024
541.235609	1.001850
541.595496	1.000921
541.955328	1.001631
542.315102	1.001433
542.674821	1.001954
543.034483	1.001440
543.394090	1.001004
543.753640	1.001942
544.113134	1.001134
544.472571	1.001758
544.831953	1.001870
545.191278	1.001634
545.550548	1.000854
545.909761	1.001735
546.268918	1.002010
546.628019	1.002213
546.987064	1.001119
547.346053	1.000690
547.704986	1.000752
548.063863	1.001210
548.422684	1.001338
548.781449	1.001754
549.140158	1.002053
549.498811	1.000991
549.857408	1.001418
550.215949	1.000621
550.574434	1.001235
550.932864	1.002341
551.291237	1.001135
551.649555	1.001942
552.007817	1.001858
552.366022	1.001794
552.724173	1.002084
553.082267	1.001580
553.440305	1.001184
553.798288	1.000750
554.156215	1.001379
554.514086	1.001232
554.871902	1.001503
555.229661	1.000468
555.587365	1.001455
555.945014	1.002518
556.302606	1.001107
556.660143	1.001824
557.017625	1.001498
557.375050	1.000972
557.732421	1.001314
558.089735	1.000846
558.446994	1.001439
558.804197	1.001477
559.161345	1.001313
559.518437	1.001529
559.875474	1.001774
560.232455	1.001493
560.589381	1.001710
560.946251	1.001429
561.303065	1.001381
561.659825	1.001105
562.016528	1.002358
562.373177	1.001722
562.729770	1.000621
563.086307	1.000549
563.442789	1.002228
563.799216	1.001409
564.155587	1.001899
564.511904	1.001780
564.868164	1.000209
565.224370	1.001025
565.580520	1.001357
565.936615	1.001236
566.292654	1.001677
566.648638	1.001823
567.004567	1.001708
567.360441	1.002057
567.716260	1.001160
568.072023	1.000947
568.427732	1.001611
568.783385	1.001830
569.138982	1.001568
569.494525	1.001019
569.850013	1.001657
570.205445	1.001293
570.560823	1.001077
570.916145	1.001759
571.271412	1.001429
571.626625	1.001869
571.981782	1.000769
572.336884	1.001696
572.691931	1.001382
573.046923	1.001868
573.401860	1.001645
573.756743	1.001473
574.111570	1.001179
574.466342	1.002199
574.821059	1.001345
575.175722	1.001285
575.530330	1.001238
575.884882	1.000814
576.239380	1.000865
576.593823	1.001543
576.948211	1.001352
577.302544	1.001169
577.656823	1.001686
578.011047	1.000397
578.365216	1.001928
578.719330	1.001100
579.073389	1.000706
579.427394	1.001469
579.781344	1.001857
580.135239	1.000655
580.489080	1.001543
580.842866	1.000530
581.196597	1.001611
581.550273	1.000929
581.903895	1.001487
582.257463	1.001946
582.610975	1.000916
582.964434	1.002101
583.317837	1.001632
583.671186	1.001496
584.024481	1.001418
584.377721	1.000933
584.730906	1.001304
585.084037	1.002621
585.437113	1.001846
585.790135	1.001421
586.143103	1.000805
586.496016	1.001767
586.848874	1.001571
587.201679	1.001423
587.554428	1.001898
587.907124	1.000909
588.259765	1.001008
588.612352	1.001805
588.964884	1.001574
589.317362	1.000980
589.669786	1.000383
590.022155	1.001253
590.374470	1.001060
590.726731	1.000228
591.078937	1.001345
591.431090	1.001672
591.783188	1.000736
592.135232	1.001724
592.487222	1.001332
592.839157	1.001432
593.191038	1.001908
593.542866	1.001386
593.894639	0.999974
594.246358	1.001412
594.598022	1.001144
594.949633	1.001075
595.301190	1.001684
595.652692	1.000844
596.004141	1.000770
596.355535	1.001236
596.706876	1.001241
597.058162	1.001540
597.409395	1.000594
597.760573	1.000419
598.111698	1.001498
598.462768	1.000444
598.813785	1.000592
599.164748	1.001098
599.515657	1.000343
599.866511	1.001436
600.217312	1.002102
600.568060	1.001018
600.918753	1.001287
601.269392	1.001523
601.619978	1.000707
601.970510	1.001125
602.320988	1.000957
602.671412	1.001178
603.021783	1.001638
603.372100	1.001153
603.722363	1.001742
604.072572	1.001337
604.422728	1.000705
604.772830	1.000918
605.122878	1.000921
605.472872	1.000866
605.822813	1.000776
606.172701	1.000599
606.522534	1.001280
606.872314	1.002096
607.222041	1.000722
607.571714	1.001351
607.921333	1.001152
608.270899	1.000716
608.620411	1.000856
608.969870	1.001645
609.319276	1.001346
609.668627	1.001432
610.017926	1.000557
610.367171	1.001163
610.716362	1.001461
611.065500	1.000321
611.414585	1.001041
611.763616	1.000009
612.112594	1.000733
612.461518	1.000425
612.810389	1.000971
613.159207	1.001336
613.507971	1.000062
613.856682	1.001449
614.205340	1.000083
614.553945	1.001148
614.902496	1.000718
615.250994	1.002018
615.599439	1.001246
615.947830	1.001103
616.296169	1.000776
616.644454	1.001313
616.992686	1.001442
617.340864	1.001802
617.688990	1.000440
618.037063	1.001245
618.385082	1.000844
618.733048	1.000563
619.080961	1.000959
619.428821	1.001580
619.776628	1.000951
620.124382	1.001355
620.472083	1.000997
620.819731	1.001955
621.167326	1.001292
621.514868	1.001623
621.862357	1.001207
622.209793	1.000263
622.557176	1.000824
622.904506	0.999982
623.251783	1.000497
623.599007	1.001598
623.946179	1.000260
624.293297	1.001137
624.640363	1.001720
624.987376	1.000340
625.334336	1.000679
625.681243	1.000751
626.028097	1.001028
626.374899	1.000582
626.721647	1.001825
627.068343	1.000954
627.414987	1.000675
627.761577	1.000638
628.108115	1.001180
628.454600	1.001295
628.801032	1.000791
629.147412	1.001402
629.493739	1.002170
629.840014	1.000656
630.186236	1.000563
630.532405	1.001546
630.878521	1.000791
631.224585	1.000824
631.570597	1.000549
631.916556	1.001083
632.262462	0.999882
632.608316	1.000788
632.954117	1.000572
633.299866	1.000251
633.645562	1.000846
633.991206	1.001294
634.336797	1.001101
634.682336	1.001616
635.027823	1.001725
635.373257	1.001216
635.718639	1.002444
636.063968	1.000817
636.409245	1.000932
636.754470	1.000641
637.099642	1.000986
637.444762	1.001402
637.789829	1.000525
638.134845	1.000151
638.479808	1.001242
638.824719	1.000433
639.169577	1.000325
639.514383	1.001041
639.859137	1.001789
640.203839	1.001122
640.548489	1.000129
640.893086	1.000819
641.237632	1.000410
641.582125	1.000465
641.926566	1.001883
642.270955	1.000813
642.615292	1.000246
642.959576	1.000487
643.303809	1.001598
643.647990	0.999993
643.992118	1.001292
644.336195	1.000428
644.680219	1.000230
645.024192	1.000854
645.368112	1.000064
645.711981	1.001297
646.055797	1.000831
646.399562	1.000144
646.743274	1.001223
647.086935	1.000220
647.430544	0.999803
647.774101	1.000115
648.117606	1.000843
648.461059	1.001364
648.804460	1.001143
649.147810	1.000219
649.491108	1.000821
649.834354	1.000431
650.177548	1.000709
650.520690	1.000411
650.863781	1.000704
651.206820	1.000809
651.549807	1.000461
651.892742	1.001067
652.235626	1.000644
652.578458	1.000576
652.921238	1.001347
653.263967	1.002321
653.606644	1.000114
653.949269	1.001437
654.291843	1.000557
654.634365	1.001020
654.976836	1.000635
655.319255	1.001275
655.661622	1.000274
656.003938	1.000477
656.346203	0.999914
656.688416	1.000799
657.030577	1.000693
657.372687	1.000716
657.714746	1.000575
658.056753	1.000335
658.398708	1.000043
658.740612	1.001481
659.082465	1.001281
659.424266	1.000541
659.766016	0.999770
660.107715	1.000862
660.449362	1.000509
660.790958	1.000265
661.132503	1.000910
661.473996	0.999386
661.815438	1.001720
662.156829	1.000595
662.498168	1.001999
662.839456	1.000124
663.180693	1.000544
663.521879	1.001121
663.863013	1.001476
664.204097	1.000103
664.545129	1.000906
664.886110	1.000734
665.227040	1.000397
665.567918	1.000443
665.908746	1.000144
666.249522	1.000051
666.590248	1.000645
666.930922	1.000252
667.271545	1.000261
667.612118	1.000735
667.952639	1.001112
668.293109	0.999950
668.633528	0.999624
668.973896	1.000388
669.314213	0.999825
669.654480	1.000815
669.994695	0.999611
670.334859	1.000820
670.674973	0.999772
671.015035	1.000624
671.355047	0.999982
671.695008	0.999450
672.034918	1.000457
672.374777	1.000567
672.714585	0.999943
673.054342	1.001255
673.394049	1.000224
673.733705	0.999923
674.073310	1.001174
674.412864	1.000522
674.752368	1.000088
675.091820	1.001314
675.431223	1.000959
675.770574	0.999514
676.109875	0.999931
676.449125	1.000336
676.788324	0.999592
677.127473	1.001215
677.466571	1.000611
677.805619	1.000745
678.144616	1.001121
678.483562	1.001209
678.822458	1.000748
679.161303	1.000227
679.500098	1.000099
679.838842	1.000637
680.177535	1.000065
680.516179	1.000111
680.854771	1.000193
681.193314	1.000309
681.531805	1.000254
681.870247	1.001607
682.208638	1.000257
682.546978	1.000309
682.885268	0.999758
683.223508	0.999968
683.561697	1.000445
683.899836	1.000234
684.237925	0.999358
684.575963	0.999929
684.913951	0.999731
685.251889	0.999852
685.589776	0.999478
685.927614	1.000316
686.265401	0.999245
686.603137	1.000394
686.940824	1.000641
687.278460	0.999725
687.616046	0.999665
687.953582	1.000234
688.291068	1.000139
688.628504	1.000477
688.965889	0.999424
689.303224	0.998474
689.640510	0.999550
689.977745	0.999934
690.314930	0.999796
690.652065	1.000103
690.989150	0.999263
691.326185	1.000761
691.663170	1.000777
692.000105	0.999999
692.336990	0.999796
692.673825	0.999565
693.010610	1.000889
693.347345	1.000517
693.684030	1.000291
694.020665	0.999871
694.357251	0.999830
694.693786	0.999769
695.030272	0.999066
695.366707	1.000091
695.703093	1.000379
696.039429	1.000132
696.375716	1.000250
696.711952	0.999220
697.048139	0.999968
697.384276	0.999949
697.720363	0.999898
698.056400	0.998075
698.392388	0.999440
698.728326	1.000197
699.064214	1.000457
699.400053	0.999532
699.735842	1.000681
700.071581	0.999500
700.407270	0.999738
700.742910	1.000130
701.078501	0.999581
701.414042	1.000443
701.749533	0.999044
702.084974	0.999952
702.420366	0.999986
702.755709	0.999493
703.091002	1.000801
703.426246	1.000717
703.761440	1.000395
704.096584	0.999434
704.431679	1.000023
704.766725	0.999989
705.101721	1.000626
705.436668	0.999950
705.771565	0.999229
706.106413	0.999523
706.441212	1.000265
706.775961	1.000143
707.110661	0.999640
707.445311	1.000125
707.779913	1.000429
708.114465	1.000997
708.448967	1.000956
708.783421	1.000642
709.117825	0.999634
709.452180	1.000138
709.786485	1.000776
710.120742	0.999245
710.454949	0.999797
710.789107	0.999781
711.123216	0.998950
711.457275	0.998571
711.791286	0.999885
712.125247	1.001663
712.459159	0.999660
712.793023	0.999758
713.126837	1.000151
713.460602	0.998798
713.794318	0.998267
714.127985	0.998911
714.461602	0.999661
714.795171	0.999959
715.128691	0.999994
715.462162	1.000000
715.795584	0.999181
716.128957	1.000888
716.462281	1.000142
716.795556	1.000525
717.128782	0.999936
717.461960	0.999673
717.795088	0.999987
718.128167	1.000607
718.461198	0.999417
718.794180	0.999960
719.127113	1.000544
719.459997	0.999532
719.792833	1.000506
720.125619	0.999042
720.458357	1.000737
720.791046	1.000691
721.123686	0.999189
721.456278	0.999700
721.788821	0.999855
722.121315	1.000984
722.453761	1.000631
722.786158	0.999685
723.118506	1.000683
723.450805	0.999977
723.783056	1.001007
724.115259	0.998450
724.447412	1.000265
724.779518	1.000187
725.111574	0.999429
725.443582	1.000226
725.775542	0.999615
726.107453	1.000608
726.439315	1.000490
726.771129	0.999921
727.102895	0.999557
727.434612	0.999343
727.766281	0.999455
728.097901	0.998836
728.429473	1.000122
728.760996	0.998684
729.092471	1.000492
729.423897	0.999419
729.755276	0.999702
730.086606	0.999106
730.417887	1.000303
730.749120	1.000562
731.080305	0.999868
731.411442	0.999591
731.742530	0.999824
732.073570	0.999508
732.404562	1.000045
732.735506	1.000260
733.066401	0.999439
733.397249	0.999280
733.728048	0.999749
734.058798	1.000092
734.389501	1.000310
734.720156	0.999638
735.050762	0.999857
735.381320	0.999754
735.711831	1.000135
736.042293	0.998860
736.372707	1.000438
736.703073	0.998684
737.033391	0.999595
737.363661	1.000483
737.693883	0.999798
738.024056	0.999451
738.354182	1.000576
738.684260	0.999986
739.014290	0.999571
739.344272	0.999814
739.674207	0.999508
740.004093	0.999745
740.333931	1.000176
740.663722	0.999381
740.993464	1.000353
741.323159	0.999616
741.652806	0.999676
741.982405	0.999080
742.311956	0.999920
742.641460	1.000976
742.970915	1.000258
743.300323	0.999047
743.629683	1.000032
743.958996	1.000987
744.288260	1.000222
744.617477	0.999861
744.946647	1.000852
745.275768	1.000743
745.604842	0.999933
745.933869	1.000345
746.262847	1.000087
746.591778	0.998119
746.920662	1.000090
747.249498	1.001478
747.578286	1.001080
747.907027	1.000738
748.235720	1.001138
748.564365	0.999970
748.892963	0.998780
749.221514	1.000418
749.550017	0.999498
749.878473	1.000505
750.206881	1.000962
750.535242	0.999388
750.863555	0.999725
751.191821	0.999807
751.520039	0.999631
751.848210	0.998571
752.176334	0.999939
752.504411	0.998680
752.832440	0.998759
753.160421	1.000316
753.488356	0.999633
753.816243	0.999721
754.144082	0.999826
754.471875	1.000753
754.799620	1.000250
755.127318	0.999845
755.454969	0.999320
755.782572	1.001041
756.110129	0.999671
756.437638	1.001207
756.765100	0.999772
757.092515	0.999168
757.419882	0.999705
757.747203	0.999831
758.074477	1.000053
758.401703	0.999200
758.728882	0.999708
759.056014	0.999559
759.383099	0.999911
759.710138	0.999843
760.037129	1.000035
760.364073	0.999648
760.690970	0.999346
761.017820	0.999216
761.344623	0.999951
761.671379	1.000800
761.998088	0.999395
762.324751	1.000706
762.651366	0.999569
762.977935	0.999015
763.304456	1.000472
763.630931	0.998111
763.957359	0.998484
764.283740	0.999122
764.610074	0.999798
764.936362	0.999214
765.262602	0.999368
765.588796	1.000170
765.914943	0.999785
766.241044	0.998449
766.567097	0.999362
766.893104	0.999677
767.219064	0.999710
767.544978	0.999865
767.870845	0.999671
768.196665	0.999533
768.522438	1.000680
768.848165	0.999955
769.173846	0.998963
769.499479	1.000715
769.825066	1.000436
770.150607	1.000939
770.476101	0.999536
770.801548	1.000708
771.126949	1.001090
771.452303	0.999727
771.777611	0.999939
772.102872	1.000408
772.428087	1.000333
772.753256	0.999755
773.078378	0.999342
773.403453	0.998605
773.728482	1.000879
774.053465	0.998992
774.378401	1.000053
774.703291	1.000316
775.028135	1.000916
775.352932	0.998915
775.677683	0.999882
776.002388	0.999220
776.327046	0.999653
776.651658	1.001276
776.976224	0.999947
777.300743	0.999882
777.625216	0.999861
777.949643	1.000391
778.274024	0.999761
778.598359	1.000310
778.922647	1.000016
779.246889	1.000581
779.571086	1.000452
779.895236	1.000510
780.219339	1.000398
780.543397	0.999320
780.867409	1.000635
781.191374	0.998839
781.515294	1.001318
781.839167	1.000085
782.162995	0.999954
782.486776	0.999387
782.810511	0.999483
783.134201	0.999712
783.457844	1.000463
783.781441	0.999346
784.104993	0.999874
784.428498	1.000101
784.751958	1.001470
785.075372	1.000225
785.398739	1.000170
785.722061	0.999617
786.045337	0.999965
786.368568	1.000006
786.691752	0.999826
787.014891	0.999937
787.337983	0.999260
787.661030	0.999753
787.984031	1.000730
788.306987	0.999778
788.629897	0.999002
788.952760	0.999816
789.275579	1.000344
789.598351	0.999682
789.921078	1.001064
790.243759	0.999322
790.566395	0.999327
790.888984	1.000945
791.211529	0.999847
791.534027	1.000417
791.856480	0.999318
792.178888	0.999788
792.501249	0.998556
792.823566	1.000142
793.145836	0.999581
793.468062	0.999941
793.790241	1.000417
794.112375	0.999603
794.434464	1.000332
794.756507	1.000655
795.078505	1.000734
795.400457	1.001106
795.722364	0.999935
796.044226	0.999806
796.366042	1.000087
796.687812	0.999619
797.009538	0.998343
797.331218	1.000020
797.652852	1.001539
797.974442	0.999365
798.295986	0.999973
798.617484	0.999151
798.938938	1.000428
799.260346	0.999410
799.581709	0.998992
799.903026	1.000770
800.224299	0.999985
800.545526	0.998999
800.866708	0.999519
801.187845	1.000270
801.508936	0.999852
801.829983	1.000225
802.150984	0.999549
802.471940	1.000434
802.792851	1.000044
803.113717	1.001420
803.434538	0.999963
803.755314	1.001578
804.076045	1.000121
804.396731	0.999959
804.717372	0.999156
805.037967	1.000331
805.358518	0.999201
805.679024	0.999078
805.999485	0.999770
806.319901	0.999318
806.640272	1.001597
806.960598	0.999177
807.280879	0.999718
807.601115	1.000084
807.921306	1.000194
808.241453	0.999333
808.561554	1.000038
808.881611	0.999752
809.201623	0.999525
809.521590	0.999505
809.841513	0.999505
810.161390	0.998512
810.481223	0.998727
810.801011	0.999828
811.120755	1.000198
811.440453	0.998920
811.760107	1.000060
812.079716	0.999737
812.399281	0.999597
812.718801	0.999072
813.038276	1.000103
813.357707	0.998966
813.677093	1.000395
813.996434	1.000408
814.315731	1.001429
814.634983	0.999861
814.954191	0.998993
815.273354	1.000156
815.592473	0.998694
815.911547	0.999800
816.230577	0.998723
816.549562	0.999030
816.868502	0.998783
817.187399	1.000046
817.506250	1.001203
817.825058	0.999077
818.143821	1.000091
818.462539	1.000954
818.781213	1.000590
819.099843	1.000193
819.418429	0.999407
819.736970	1.000561
820.055466	0.999561
820.373919	0.999675
820.692327	0.998854
821.010691	0.999914
821.329011	0.999329
821.647286	0.997716
821.965517	0.998853
822.283704	0.998780
822.601847	0.997970
822.919945	0.998183
823.237999	0.998432
823.556010	0.998544
823.873976	0.999536
824.191897	0.998611
824.509775	0.999435
824.827609	0.999449
825.145398	1.000861
825.463144	0.998225
825.780845	0.998257
826.098502	0.998867
826.416116	1.000063
826.733685	0.999146
827.051210	0.998147
827.368692	0.999258
827.686129	0.999185
828.003522	0.999807
828.320872	0.999413
828.638177	1.000093
828.955439	0.999826
829.272656	1.000150
829.589830	0.998457
829.906960	0.999433
830.224046	0.998909
830.541088	0.998298
830.858086	0.999337
831.175041	1.001109
831.491952	1.000217
831.808819	1.000327
832.125642	0.999825
832.442421	1.000851
832.759157	1.002117
833.075849	0.999748
833.392497	0.998407
833.709101	0.998780
834.025662	0.999530
834.342179	1.000074
834.658653	1.000067
834.975083	0.999020
835.291469	0.999980
835.607811	0.999363
835.924110	0.999872
836.240366	1.001507
836.556578	0.999711
836.872746	0.999968
837.188871	0.999716
837.504952	0.999442
837.820990	1.000459
838.136984	0.999892
838.452935	0.999359
838.768842	1.000684
839.084706	0.999402
839.400526	1.001021
839.716303	0.999693
840.032037	1.000576
840.347727	1.000065
840.663373	1.000046
840.978977	0.999501
841.294537	1.000337
841.610054	0.999823
841.925527	1.000490
842.240957	0.999431
842.556344	0.999490
842.871687	1.000028
843.186987	0.999078
843.502244	0.999765
843.817458	0.999136
844.132629	0.998754
844.447756	1.000427
844.762840	0.999741
845.077881	1.001021
845.392879	0.998525
845.707833	0.999549
846.022745	0.998778
846.337613	1.000099
846.652438	0.999194
846.967221	1.000371
847.281960	1.000516
847.596656	1.000228
847.911309	0.999810
848.225919	0.999198
848.540485	1.000114
848.855009	1.000138
849.169490	0.999915
849.483928	0.999690
849.798323	0.998624
850.112675	1.001563
850.426984	1.001210
850.741251	0.999613
851.055474	1.000018
851.369654	0.999926
851.683792	0.999497
851.997887	0.999895
852.311938	1.000150
852.625947	0.999291
852.939914	0.998474
853.253837	1.000100
853.567718	1.001279
853.881555	0.999893
854.195350	0.999379
854.509103	1.000271
854.822812	1.000976
855.136479	1.000256
855.450103	1.000390
855.763685	1.000514
856.077224	1.000218
856.390720	0.999620
856.704173	1.001142
857.017584	1.000532
857.330953	0.999414
857.644278	1.000573
857.957561	1.000120
858.270802	1.000256
858.584000	1.001188
858.897155	0.999358
859.210268	1.000738
859.523339	1.000083
859.836367	1.000082
860.149352	0.998832
860.462295	0.999089
860.775195	0.999480
861.088054	0.999606
861.400869	0.999529
861.713642	0.999538
862.026373	1.000715
862.339062	1.000524
862.651708	1.000395
862.964312	1.001086
863.276873	0.999612
863.589392	0.999939
863.901869	0.999942
864.214303	0.999924
864.526696	0.999812
864.839045	1.000110
865.151353	1.000786
865.463619	0.999536
865.775842	1.001408
866.088023	1.000718
866.400162	1.000378
866.712258	1.000420
867.024313	1.000420
867.336325	1.001047
867.648296	1.000586
867.960224	1.001328
868.272110	1.001153
868.583954	1.000112
868.895755	1.001117
869.207515	0.999946
869.519233	1.001004
869.830909	1.000575
870.142542	0.998995
870.454134	0.999733
870.765684	1.000102
871.077191	0.999048
871.388657	0.999662
871.700081	1.000094
872.011463	1.000658
872.322803	0.999671
872.634101	0.999452
872.945357	0.999259
873.256571	0.999427
873.567744	1.000129
873.878874	1.001311
874.189963	0.999585
874.501010	1.000797
874.812015	0.998893
875.122979	0.999346
875.433900	0.999590
875.744780	1.000891
876.055618	0.999122
876.366415	0.999610
876.677169	0.999531
876.987882	1.000007
877.298554	1.001157
877.609183	1.000054
877.919771	0.999670
878.230317	1.000508
878.540822	0.999528
878.851285	1.000158
879.161707	0.999367
879.472087	1.001455
879.782425	1.000584
880.092722	0.999711
880.402977	0.999414
880.713191	0.998821
881.023363	0.999094
881.333494	0.998245
881.643583	0.998448
881.953631	0.999051
882.263637	0.997843
882.573602	0.998674
882.883526	0.998677
883.193408	0.999332
883.503248	0.999239
883.813048	0.998407
884.122806	1.000016
884.432522	0.999323
884.742197	1.001152
885.051831	0.999187
885.361424	0.999613
885.670975	1.001407
885.980485	1.000498
886.289954	0.999669
886.599382	0.998972
886.908768	1.001303
887.218113	0.999057
887.527417	0.999022
887.836680	1.000559
888.145901	1.000526
888.455082	1.001412
888.764221	1.000922
889.073319	0.999471
889.382376	0.999880
889.691392	0.999448
890.000366	1.001194
890.309300	1.000996
890.618193	1.000674
890.927044	0.999317
891.235855	0.999581
891.544625	1.000547
891.853353	0.999520
892.162041	0.999599
892.470687	1.000366
892.779293	1.000215
893.087858	0.999011
893.396381	1.000020
893.704864	0.998843
894.013306	0.999025
894.321707	0.999422
894.630068	0.999518
894.938387	0.999135
895.246665	0.999980
895.554903	0.999273
895.863100	0.998923
896.171256	0.999624
896.479371	0.999035
896.787446	0.999746
897.095480	0.999419
897.403473	0.999733
897.711425	0.999943
898.019336	1.000258
898.327207	1.000765
898.635038	0.998896
898.942827	1.000024
899.250576	0.999213
899.558284	1.000462
899.865952	0.998945
900.173579	1.000612
900.481165	0.999823
900.788711	0.999318
901.096216	0.999209
901.403681	1.000011
901.711105	0.999417
902.018489	0.999424
902.325832	0.999330
902.633135	0.999165
902.940397	1.000828
903.247619	1.000506
903.554800	1.000344
903.861941	1.000324
904.169041	1.000134
904.476101	0.999732
904.783121	0.999288
905.090100	1.000342
905.397039	0.999977
905.703938	0.999581
906.010796	0.999774
906.317614	0.999283
906.624391	1.000465
906.931129	1.000321
907.237826	0.999101
907.544483	0.999454
907.851099	0.998896
908.157675	0.999263
908.464211	1.000940
908.770707	0.999626
909.077163	1.000572
909.383578	0.999946
909.689954	0.997798
909.996289	1.000139
910.302584	0.999540
910.608839	1.001038
910.915054	0.999066
911.221229	1.000960
911.527363	0.999866
911.833458	1.000893
912.139513	1.000387
912.445527	0.999800
912.751502	1.000051
913.057436	0.999269
913.363331	1.000295
913.669186	0.999898
913.975000	1.000238
914.280775	1.000551
914.586510	0.999394
914.892205	0.998913
915.197859	0.998954
915.503475	1.000194
915.809050	0.999167
916.114585	0.997667
916.420081	0.999457
916.725536	0.999857
917.030952	0.999555
917.336328	0.999156
917.641665	0.998549
917.946961	0.998965
918.252218	0.998459
918.557435	0.998442
918.862612	0.999744
919.167750	0.999484
919.472848	1.001010
919.777906	1.001227
920.082925	1.000624
920.387904	1.001500
920.692843	1.000539
920.997743	1.000275
921.302603	1.000203
921.607423	0.998367
921.912204	0.999924
922.216946	1.000339
922.521647	1.000103
922.826310	0.998936
923.130932	1.000757
923.435516	1.000898
923.740059	1.000098
924.044564	0.999359
924.349028	0.999644
924.653454	0.999600
924.957840	0.999275
925.262186	0.999711
925.566493	0.998590
925.870761	0.999393
926.174989	0.999688
926.479178	1.000873
926.783328	1.000357
927.087438	0.999803
927.391509	0.999378
927.695541	0.999201
927.999533	0.999765
928.303486	0.999491
928.607400	1.000381
928.911275	0.999691
929.215110	1.000868
929.518906	0.999909
929.822663	1.001286
930.126381	1.000963
930.430060	1.000400
930.733699	1.000129
931.037299	0.999932
931.340861	1.001287
931.644383	0.999760
931.947866	1.000105
932.251309	1.000646
932.554714	0.998214
932.858080	0.999713
933.161407	0.998862
933.464694	1.000699
933.767943	0.999552
934.071153	1.000035
934.374323	1.001113
934.677455	0.999923
934.980548	0.999214
935.283602	1.001476
935.586617	0.999020
935.889593	1.002517
936.192530	1.000095
936.495428	1.000158
936.798287	0.999491
937.101108	0.999452
937.403890	0.999068
937.706632	1.000759
938.009336	0.999058
938.312002	0.999850
938.614628	1.000609
938.917216	0.999523
939.219765	1.000385
939.522275	1.001196
939.824747	0.998535
940.127179	1.000124
940.429573	1.001054
940.731929	1.000029
941.034246	0.999649
941.336524	0.999208
941.638763	0.999983
941.940964	1.000089
942.243126	0.999262
942.545250	1.000176
942.847335	1.000431
943.149381	0.999849
943.451389	0.999318
943.753359	0.999553
944.055290	1.001014
944.357182	1.000054
944.659036	1.000687
944.960851	1.000050
945.262628	1.000051
945.564367	0.999920
945.866067	1.000870
946.167729	1.000414
946.469352	1.001225
946.770937	0.998106
947.072484	1.000014
947.373992	1.000530
947.675462	0.999074
947.976893	0.999291
948.278286	1.001110
948.579641	1.000643
948.880958	0.999553
949.182236	0.999623
949.483476	1.000084
949.784678	1.000636
950.085841	0.999730
950.386967	0.999408
950.688054	1.000076
950.989103	0.998896
951.290114	0.999443
951.591087	0.999242
951.892021	0.998742
952.192917	0.999734
952.493776	1.000110
952.794596	0.999347
953.095378	1.000898
953.396122	0.999656
953.696828	1.000329
953.997496	0.999452
954.298126	1.000785
954.598718	0.999388
954.899272	1.000378
955.199788	0.999018
955.500266	0.999743
955.800706	0.999550
956.101108	0.999152
956.401472	1.000528
956.701798	0.999007
957.002087	1.000023
957.302337	0.999355
957.602550	1.000703
957.902724	1.000060
958.202861	0.999764
958.502960	0.998970
958.803022	1.001146
959.103045	1.000235
959.403031	1.000299
959.702979	1.000305
960.002889	0.999863
960.302762	0.998554
960.602596	1.001510
960.902393	1.000284
961.202153	0.998829
961.501875	1.001383
961.801559	1.001049
962.101205	0.998739
962.400814	1.000787
962.700385	1.000129
962.999918	1.000170
963.299414	0.998367
963.598873	1.000049
963.898293	1.000105
964.197677	0.999758
964.497022	1.000636
964.796331	0.999711
965.095601	1.000759
965.394835	0.999293
965.694030	1.000429
965.993189	0.998622
966.292309	0.998753
966.591393	0.999598
966.890439	0.999997
967.189447	1.000149
967.488419	0.999545
967.787353	1.000098
968.086249	1.000181
968.385108	0.999567
968.683930	1.000861
968.982714	1.000492
969.281462	1.000465
969.580172	0.999760
969.878844	0.998943
970.177480	0.999886
970.476078	1.001129
970.774639	1.000589
971.073162	1.000299
971.371649	0.999077
971.670098	1.000009
971.968510	1.000203
972.266885	0.998890
972.565223	1.000676
972.863524	0.999768
973.161788	1.000226
973.460014	1.001106
973.758204	0.999557
974.056356	1.000150
974.354471	0.999377
974.652550	1.000509
974.950591	1.000060
975.248595	0.998401
975.546563	1.000756
975.844493	1.000561
976.142386	0.999373
976.440243	1.000761
976.738062	1.000412
977.035845	0.998692
977.333590	1.000014
977.631299	0.998866
977.928971	0.999930
978.226606	0.998512
978.524204	0.999048
978.821765	1.000343
979.119290	1.001470
979.416777	0.999952
979.714228	0.999620
980.011642	0.999463
980.309020	0.998577
980.606360	0.999498
980.903664	0.998437
981.200931	0.999343
981.498162	0.998825
981.795356	1.000178
982.092513	0.999573
982.389633	0.999845
982.686717	0.999116
982.983764	0.998529
983.280775	0.999543
983.577749	1.001317
983.874686	0.998735
984.171587	0.998775
984.468451	1.000195
984.765279	0.999552
985.062070	1.000598
985.358824	0.999674
985.655543	1.000044
985.952224	1.000486
986.248869	1.000573
986.545478	1.000859
986.842050	0.999517
987.138586	0.999523
987.435086	0.998867
987.731549	1.000195
988.027975	1.000289
988.324366	0.999720
988.620719	1.001731
988.917037	0.999328
989.213318	1.001077
989.509563	0.999898
989.805772	1.000753
990.101944	0.999998
990.398080	0.999973
990.694180	1.000801
990.990244	0.999143
991.286271	0.999284
991.582262	1.000052
991.878217	0.999025
992.174136	1.000695
992.470019	0.998881
992.765865	1.001468
993.061676	1.000769
993.357450	1.000033
993.653188	1.000452
993.948890	0.999565
994.244556	0.998480
994.540186	1.000061
994.835780	0.999870
995.131337	1.000972
995.426859	0.999798
995.722345	1.000330
996.017795	1.000243
996.313208	0.999440
996.608586	0.999430
996.903928	0.999061
997.199234	0.999039
997.494504	1.000690
997.789738	0.999638
998.084936	1.000282
998.380099	0.999259
998.675225	1.000293
998.970316	1.000480
999.265371	0.999459
999.560390	0.999375
999.855373	0.998911
1000.150320	1.000422
1000.445232	1.000325
1000.740108	0.999539
1001.034948	1.000280
1001.329752	1.000291
1001.624521	1.000200
1001.919254	0.998906
1002.213951	0.999698
1002.508613	0.998842
1002.803239	0.999284
1003.097829	1.000014
1003.392384	0.999616
1003.686903	0.999923
1003.981386	1.000044
1004.275834	1.001204
1004.570246	0.999506
1004.864623	1.000658
1005.158964	1.000804
1005.453270	0.999679
1005.747540	1.000362
1006.041775	0.999107
1006.335974	1.000690
1006.630138	1.000373
1006.924266	0.998005
1007.218359	0.998862
1007.512416	1.000579
1007.806438	1.000071
1008.100425	1.000805
1008.394376	1.000204
1008.688292	0.998470
1008.982172	0.999828
1009.276017	1.000537
1009.569827	1.001018
1009.863602	0.998522
1010.157341	1.000237
1010.451045	1.000221
1010.744714	1.000806
1011.038347	1.000612
1011.331945	0.998927
1011.625508	0.999342
1011.919036	1.000322
1012.212528	1.000036
1012.505986	0.999798
1012.799408	1.000597
1013.092795	1.000791
1013.386147	0.999742
1013.679464	1.001094
1013.972745	0.999587
1014.265992	0.999203
1014.559204	0.999214
1014.852380	1.000875
1015.145521	1.000460
1015.438628	0.998668
1015.731699	0.999813
1016.024736	1.000712
1016.317737	0.999881
1016.610703	1.000160
1016.903635	1.000557
1017.196531	0.998660
1017.489393	0.999398
1017.782219	0.998927
1018.075011	0.998895
1018.367768	0.999137
1018.660490	0.999036
1018.953177	0.999036
1019.245829	0.999036
