Dividing Wavelength (nm)	Counts (n)	Blue Motor Position (mm): 48.500000	Red Motor Position (mm): 0.000000	
326.493990	1.000769
326.888308	1.000769
327.282561	1.000769
327.676750	1.000149
328.070874	1.001177
328.464933	1.000548
328.858929	1.001404
329.252859	0.999238
329.646726	0.999225
330.040528	0.999882
330.434265	0.999820
330.827938	0.999563
331.221547	1.000163
331.615091	1.000390
332.008571	1.001044
332.401986	0.999582
332.795338	0.999508
333.188625	1.000411
333.581847	1.000129
333.975006	1.000525
334.368100	1.000346
334.761129	0.999055
335.154095	1.000588
335.546996	1.000248
335.939833	0.999321
336.332606	1.001182
336.725315	0.998872
337.117960	1.002255
337.510540	0.999351
337.903056	0.999621
338.295508	1.000961
338.687896	1.000996
339.080220	1.000071
339.472480	1.000250
339.864676	1.000521
340.256807	0.999225
340.648875	1.000933
341.040879	0.999999
341.432818	1.000490
341.824694	0.999265
342.216506	0.999496
342.608253	0.999716
342.999937	0.999744
343.391557	0.998611
343.783113	1.000552
344.174605	1.000168
344.566033	0.999719
344.957397	1.000249
345.348697	1.000035
345.739934	1.001461
346.131106	1.000638
346.522215	1.000268
346.913260	0.999781
347.304241	0.999589
347.695159	1.001495
348.086012	0.998737
348.476802	1.000490
348.867528	0.999467
349.258191	1.000212
349.648789	0.999430
350.039324	1.000933
350.429796	0.999879
350.820203	0.998969
351.210548	0.999935
351.600828	1.000245
351.991045	1.000156
352.381198	1.000119
352.771288	0.999557
353.161314	1.000902
353.551276	0.999867
353.941175	0.999630
354.331010	1.000163
354.720782	1.000261
355.110490	1.000148
355.500135	1.001068
355.889717	0.999875
356.279235	0.999879
356.668689	1.000591
357.058080	1.000454
357.447408	0.999063
357.836672	1.000186
358.225873	1.000394
358.615010	1.000022
359.004084	0.999305
359.393095	0.999872
359.782043	0.998817
360.170927	1.001067
360.559748	1.000110
360.948505	1.000145
361.337199	0.998850
361.725830	1.000220
362.114398	0.999240
362.502903	1.000006
362.891344	0.999040
363.279722	0.999571
363.668037	1.000541
364.056289	0.999499
364.444478	1.000122
364.832603	0.999090
365.220665	0.999603
365.608665	0.999426
365.996601	0.999341
366.384474	0.999573
366.772284	0.999025
367.160031	0.997108
367.547715	0.998546
367.935336	0.998970
368.322893	0.997934
368.710388	0.996544
369.097820	0.996066
369.485189	0.993683
369.872495	0.993476
370.259738	0.992731
370.646918	0.991534
371.034035	0.991192
371.421090	0.990405
371.808081	0.988790
372.195010	0.988345
372.581875	0.986932
372.968678	0.986731
373.355418	0.985097
373.742096	0.982670
374.128710	0.983473
374.515262	0.982914
374.901751	0.981714
375.288177	0.982451
375.674540	0.981059
376.060841	0.980933
376.447079	0.979081
376.833254	0.979926
377.219367	0.980486
377.605417	0.980221
377.991404	0.980952
378.377329	0.981671
378.763191	0.981067
379.148991	0.981209
379.534727	0.981301
379.920402	0.981710
380.306013	0.981875
380.691563	0.983289
381.077049	0.983305
381.462474	0.985283
381.847835	0.984321
382.233134	0.986687
382.618371	0.987465
383.003545	0.988560
383.388657	0.988982
383.773706	0.989843
384.158693	0.990987
384.543618	0.993206
384.928480	0.993749
385.313280	0.994059
385.698017	0.992973
386.082692	0.994557
386.467305	0.994724
386.851856	0.996725
387.236344	0.996370
387.620770	0.998233
388.005133	0.997954
388.389435	0.997863
388.773674	0.997105
389.157851	0.999036
389.541965	0.999283
389.926018	0.999468
390.310008	0.999232
390.693936	0.999932
391.077802	1.000195
391.461606	0.998845
391.845348	1.000276
392.229027	0.998529
392.612645	1.000515
392.996200	1.001316
393.379694	0.998895
393.763125	1.001461
394.146494	1.000371
394.529801	0.999974
394.913047	0.999798
395.296230	1.000004
395.679351	1.000309
396.062410	1.000884
396.445408	0.999909
396.828343	1.000417
397.211217	1.000658
397.594028	1.000097
397.976778	1.000180
398.359466	0.999698
398.742092	1.000658
399.124656	0.999262
399.507158	1.000308
399.889598	1.000948
400.271977	1.000758
400.654294	0.999785
401.036549	1.000999
401.418742	1.000651
401.800874	1.000222
402.182944	1.000170
402.564952	0.999915
402.946898	1.000641
403.328783	1.000498
403.710606	0.999716
404.092367	1.000878
404.474067	1.001436
404.855705	1.001491
405.237282	1.000112
405.618797	1.001788
406.000250	1.001125
406.381642	1.000437
406.762972	1.001121
407.144240	1.000957
407.525447	0.998903
407.906593	1.000167
408.287677	0.999931
408.668700	1.000775
409.049661	1.000804
409.430560	1.000687
409.811399	1.000990
410.192176	1.000943
410.572891	1.000942
410.953545	0.999629
411.334138	1.000856
411.714669	0.999633
412.095139	1.000564
412.475547	1.000353
412.855894	1.001015
413.236180	0.999982
413.616405	1.000541
413.996568	0.999986
414.376670	1.000027
414.756711	0.999888
415.136691	0.999430
415.516609	0.999899
415.896466	1.000666
416.276262	0.999909
416.655997	1.001130
417.035670	1.000865
417.415283	1.000603
417.794834	1.000444
418.174324	1.001637
418.553753	0.999638
418.933121	1.000980
419.312428	1.001208
419.691674	1.000793
420.070859	1.000118
420.449983	1.001026
420.829045	1.000205
421.208047	1.001656
421.586988	0.999731
421.965867	0.999708
422.344686	1.000596
422.723444	1.000677
423.102141	1.000757
423.480777	0.999671
423.859352	1.001338
424.237866	1.001467
424.616319	1.000706
424.994712	1.000560
425.373044	1.001434
425.751314	1.000508
426.129524	1.000563
426.507673	1.000179
426.885762	1.000448
427.263789	1.000453
427.641756	1.000223
428.019662	1.000288
428.397508	1.001027
428.775292	0.999931
429.153016	1.000109
429.530679	1.000478
429.908282	1.000665
430.285824	1.000887
430.663305	0.999943
431.040726	1.000779
431.418086	1.000709
431.795385	1.001334
432.172624	1.001168
432.549802	0.999412
432.926920	1.000391
433.303977	0.999797
433.680974	1.000766
434.057910	1.000729
434.434786	0.999763
434.811601	1.000228
435.188355	1.000443
435.565050	1.001150
435.941683	1.000204
436.318257	0.999896
436.694770	1.000158
437.071222	1.001112
437.447614	1.000584
437.823946	1.000676
438.200218	1.000494
438.576429	0.999638
438.952580	1.001092
439.328670	0.999415
439.704700	1.000150
440.080670	1.000726
440.456580	1.000415
440.832429	1.000635
441.208218	1.000625
441.583947	0.999766
441.959616	0.999892
442.335224	1.000952
442.710773	1.001510
443.086261	1.001293
443.461689	1.000518
443.837057	1.000142
444.212365	1.000648
444.587612	1.001527
444.962800	1.000489
445.337927	1.000830
445.712995	1.000702
446.088002	1.000228
446.462949	0.999933
446.837837	1.001836
447.212664	0.999731
447.587431	1.000926
447.962139	1.000139
448.336786	0.999471
448.711374	1.000754
449.085901	1.000641
449.460369	1.001273
449.834776	1.000280
450.209124	1.000945
450.583412	1.001387
450.957640	1.001051
451.331808	1.000764
451.705917	1.000433
452.079965	1.000917
452.453954	1.000816
452.827883	1.000811
453.201752	1.000783
453.575562	0.999776
453.949311	1.000803
454.323001	1.000135
454.696632	1.000036
455.070202	1.000072
455.443713	1.000650
455.817164	1.000410
456.190556	1.000813
456.563888	1.001387
456.937160	1.000977
457.310373	1.000499
457.683526	1.000836
458.056619	1.000956
458.429653	1.000371
458.802628	1.000179
459.175542	0.999747
459.548398	1.001197
459.921194	1.001604
460.293930	1.001085
460.666607	1.001117
461.039224	1.000497
461.411782	1.000433
461.784280	1.000495
462.156719	1.001492
462.529099	1.000979
462.901419	1.001021
463.273680	1.000305
463.645882	1.000205
464.018024	1.000767
464.390106	1.000620
464.762130	1.000875
465.134094	1.000911
465.505999	1.000383
465.877845	1.000137
466.249631	1.000436
466.621358	1.000084
466.993026	1.000987
467.364634	1.000805
467.736184	1.001179
468.107674	1.001387
468.479105	1.000300
468.850477	1.001035
469.221790	1.001225
469.593043	1.000969
469.964238	1.000071
470.335373	1.000307
470.706449	1.000210
471.077467	1.001114
471.448425	1.000176
471.819324	1.001204
472.190164	1.000235
472.560945	1.000264
472.931667	1.000418
473.302330	1.001712
473.672934	1.001164
474.043479	1.000760
474.413965	1.001147
474.784393	1.000903
475.154761	1.000500
475.525070	1.000883
475.895321	1.000797
476.265513	1.001208
476.635645	1.000652
477.005719	1.000877
477.375734	1.001200
477.745691	1.000880
478.115588	1.000488
478.485427	1.000158
478.855207	1.000340
479.224928	1.000583
479.594591	1.000705
479.964194	1.000664
480.333739	1.001087
480.703226	1.000766
481.072653	1.000827
481.442022	1.000719
481.811333	1.000268
482.180584	1.000626
482.549777	1.000638
482.918912	1.000330
483.287988	1.001157
483.657005	1.000241
484.025964	1.000288
484.394864	1.000506
484.763706	1.000554
485.132489	1.000519
485.501213	1.000614
485.869879	1.000446
486.238487	0.999670
486.607036	1.000585
486.975527	1.000524
487.343959	1.000212
487.712333	1.000668
488.080648	0.999919
488.448905	1.000520
488.817104	1.000229
489.185244	1.001153
489.553326	1.001080
489.921350	1.000461
490.289315	1.000591
490.657222	0.999614
491.025070	1.000825
491.392861	1.000484
491.760593	1.000695
492.128267	1.000528
492.495883	0.999668
492.863440	1.000873
493.230939	1.000259
493.598380	1.001049
493.965763	1.000198
494.333088	0.999506
494.700354	1.000060
495.067563	1.000447
495.434713	1.000482
495.801805	1.000103
496.168839	1.000802
496.535815	1.000582
496.902733	1.000549
497.269593	0.999946
497.636395	0.999988
498.003139	1.000135
498.369825	1.000755
498.736453	1.000729
499.103023	1.000767
499.469535	1.000338
499.835989	1.000689
500.202385	1.000919
500.568723	1.000822
500.935003	1.000820
501.301226	1.000424
501.667390	1.000410
502.033497	1.000699
502.399546	1.000441
502.765537	1.000207
503.131470	1.000647
503.497345	1.001492
503.863163	1.000901
504.228923	1.000131
504.594625	1.000660
504.960269	1.000528
505.325856	1.001330
505.691385	1.001335
506.056856	1.000575
506.422270	1.000833
506.787625	1.000940
507.152924	1.001574
507.518164	1.000002
507.883347	1.000390
508.248472	1.000789
508.613540	1.000293
508.978550	1.000620
509.343503	1.000367
509.708398	1.000914
510.073236	1.001001
510.438016	0.999893
510.802738	1.000238
511.167403	1.000298
511.532010	1.000537
511.896561	1.000487
512.261053	1.000273
512.625488	1.000500
512.989866	1.000566
513.354186	1.000146
513.718449	1.000785
514.082655	0.999970
514.446803	1.001324
514.810894	1.001002
515.174927	1.000304
515.538904	1.000480
515.902822	1.000490
516.266684	1.000492
516.630488	1.000513
516.994235	1.000191
517.357925	1.000835
517.721558	1.000697
518.085133	1.000461
518.448651	1.000147
518.812112	1.000694
519.175516	1.000625
519.538863	1.000151
519.902152	1.000796
520.265385	1.000719
520.628560	1.000523
520.991678	1.000532
521.354739	1.000932
521.717743	1.000591
522.080690	1.000166
522.443580	1.000154
522.806413	1.000880
523.169189	1.000590
523.531908	0.999876
523.894569	1.001266
524.257174	1.000691
524.619722	1.001007
524.982213	1.000570
525.344647	1.000294
525.707025	0.999299
526.069345	0.999822
526.431608	1.001225
526.793815	1.000953
527.155964	1.001496
527.518057	1.000462
527.880093	1.000814
528.242072	1.000170
528.603995	1.000718
528.965860	1.000630
529.327669	1.001139
529.689421	1.000031
530.051117	1.000739
530.412755	1.000905
530.774337	1.000533
531.135862	1.001114
531.497331	1.000950
531.858743	1.000382
532.220098	1.000135
532.581396	1.000932
532.942638	1.000863
533.303824	1.001493
533.664953	0.999951
534.026025	1.000719
534.387040	1.000093
534.747999	1.000286
535.108902	1.000812
535.469748	1.000974
535.830537	1.000759
536.191270	1.000871
536.551947	1.000387
536.912567	1.000476
537.273131	1.001039
537.633638	1.000304
537.994089	1.000566
538.354483	1.000892
538.714821	1.000958
539.075103	1.001110
539.435328	1.001472
539.795497	1.000179
540.155609	1.001403
540.515665	1.000740
540.875665	1.000514
541.235609	1.000999
541.595496	1.000381
541.955328	1.000448
542.315102	1.000836
542.674821	1.000707
543.034483	1.001610
543.394090	1.000324
543.753640	1.001055
544.113134	1.000596
544.472571	1.001121
544.831953	1.001923
545.191278	1.000926
545.550548	1.000527
545.909761	1.000517
546.268918	1.001543
546.628019	1.001436
546.987064	1.000976
547.346053	0.999649
547.704986	1.000646
548.063863	0.999728
548.422684	1.001155
548.781449	1.000186
549.140158	1.001077
549.498811	1.000609
549.857408	1.000237
550.215949	1.000388
550.574434	1.000379
550.932864	1.000659
551.291237	1.000331
551.649555	1.000679
552.007817	1.000686
552.366022	1.001031
552.724173	1.000837
553.082267	1.000161
553.440305	1.000423
553.798288	0.999299
554.156215	1.000294
554.514086	1.000571
554.871902	1.000572
555.229661	1.000677
555.587365	1.000900
555.945014	1.001630
556.302606	1.000484
556.660143	1.000826
557.017625	1.000670
557.375050	1.000407
557.732421	1.001153
558.089735	1.000258
558.446994	1.000522
558.804197	1.000485
559.161345	1.000381
559.518437	1.000084
559.875474	1.001295
560.232455	1.000816
560.589381	1.000803
560.946251	1.001108
561.303065	1.001110
561.659825	1.000276
562.016528	1.001234
562.373177	1.000935
562.729770	1.000694
563.086307	1.000080
563.442789	1.000816
563.799216	1.000331
564.155587	1.000630
564.511904	1.001193
564.868164	1.000303
565.224370	1.000272
565.580520	1.000628
565.936615	1.000656
566.292654	1.000820
566.648638	1.001152
567.004567	1.001166
567.360441	1.000845
567.716260	1.000341
568.072023	1.000722
568.427732	1.000771
568.783385	1.000908
569.138982	1.001148
569.494525	1.000757
569.850013	1.001036
570.205445	1.000648
570.560823	1.000548
570.916145	1.000200
571.271412	1.000394
571.626625	1.000880
571.981782	1.000936
572.336884	1.000864
572.691931	1.000468
573.046923	1.000645
573.401860	1.000411
573.756743	1.001016
574.111570	1.000636
574.466342	1.001041
574.821059	1.000222
575.175722	1.001058
575.530330	1.000617
575.884882	1.000789
576.239380	1.001237
576.593823	1.000576
576.948211	1.000661
577.302544	1.000704
577.656823	1.000436
578.011047	1.000033
578.365216	1.001047
578.719330	1.001002
579.073389	0.999693
579.427394	1.001103
579.781344	1.000404
580.135239	1.000069
580.489080	1.000852
580.842866	1.001077
581.196597	1.000460
581.550273	0.999643
581.903895	1.001466
582.257463	1.000607
582.610975	1.000547
582.964434	1.000801
583.317837	1.000979
583.671186	1.001249
584.024481	1.000723
584.377721	0.999685
584.730906	1.001269
585.084037	1.001843
585.437113	1.000933
585.790135	1.000885
586.143103	1.000794
586.496016	1.000226
586.848874	1.001680
587.201679	1.001047
587.554428	1.000921
587.907124	1.000498
588.259765	1.000753
588.612352	1.001319
588.964884	1.000740
589.317362	1.001485
589.669786	1.000574
590.022155	1.000315
590.374470	1.000184
590.726731	1.000110
591.078937	1.000636
591.431090	1.000192
591.783188	1.000151
592.135232	1.000617
592.487222	1.000973
592.839157	1.000833
593.191038	1.001034
593.542866	1.001081
593.894639	0.999437
594.246358	1.001214
594.598022	1.000961
594.949633	1.000731
595.301190	1.000470
595.652692	1.000164
596.004141	1.000167
596.355535	1.000397
596.706876	1.000665
597.058162	1.000758
597.409395	1.000133
597.760573	1.000727
598.111698	1.000109
598.462768	0.999669
598.813785	0.999819
599.164748	1.000441
599.515657	1.000305
599.866511	1.001157
600.217312	1.000995
600.568060	1.000186
600.918753	1.001574
601.269392	1.000947
601.619978	1.000854
601.970510	1.000228
602.320988	1.000409
602.671412	1.000693
603.021783	1.000859
603.372100	1.000936
603.722363	1.000815
604.072572	1.000617
604.422728	1.000230
604.772830	1.000732
605.122878	1.000582
605.472872	1.001678
605.822813	1.000068
606.172701	1.000384
606.522534	1.001800
606.872314	1.001085
607.222041	1.000818
607.571714	1.000938
607.921333	1.000847
608.270899	1.001195
608.620411	1.000452
608.969870	1.001100
609.319276	1.001689
609.668627	1.000748
610.017926	1.000854
610.367171	1.001261
610.716362	1.000894
611.065500	0.999738
611.414585	1.000381
611.763616	1.000122
612.112594	1.000859
612.461518	1.000101
612.810389	1.000564
613.159207	1.000856
613.507971	1.000210
613.856682	1.001408
614.205340	0.999607
614.553945	1.001349
614.902496	1.000384
615.250994	1.000258
615.599439	1.001228
615.947830	1.000066
616.296169	1.000667
616.644454	1.000479
616.992686	1.000329
617.340864	1.000819
617.688990	0.999502
618.037063	1.000585
618.385082	0.999834
618.733048	0.999776
619.080961	1.000187
619.428821	1.000698
619.776628	0.999729
620.124382	1.001046
620.472083	1.000446
620.819731	1.001756
621.167326	1.001014
621.514868	1.000723
621.862357	1.000562
622.209793	1.000587
622.557176	1.000905
622.904506	1.000605
623.251783	1.001088
623.599007	1.001612
623.946179	0.999912
624.293297	1.001033
624.640363	1.000896
624.987376	1.000101
625.334336	1.000936
625.681243	1.000273
626.028097	1.000570
626.374899	1.000630
626.721647	1.001077
627.068343	1.000128
627.414987	1.000702
627.761577	1.000027
628.108115	0.999879
628.454600	1.001527
628.801032	1.000737
629.147412	1.000796
629.493739	1.001516
629.840014	1.000731
630.186236	0.999937
630.532405	1.000138
630.878521	0.999484
631.224585	0.999913
631.570597	1.000461
631.916556	1.001166
632.262462	0.999601
632.608316	1.001006
632.954117	0.999469
633.299866	1.000632
633.645562	1.000552
633.991206	1.000996
634.336797	1.000160
634.682336	1.002059
635.027823	1.000287
635.373257	1.000593
635.718639	1.000598
636.063968	1.000526
636.409245	1.000344
636.754470	1.000654
637.099642	1.000700
637.444762	1.001489
637.789829	1.000532
638.134845	1.000100
638.479808	1.001244
638.824719	1.000339
639.169577	1.000664
639.514383	1.000806
639.859137	1.000033
640.203839	1.000229
640.548489	1.000463
640.893086	1.000172
641.237632	1.000738
641.582125	1.000203
641.926566	1.000974
642.270955	1.001280
642.615292	0.999949
642.959576	1.000432
643.303809	1.000970
643.647990	1.000515
643.992118	1.000949
644.336195	0.999996
644.680219	1.000548
645.024192	1.000320
645.368112	0.999639
645.711981	1.000547
646.055797	0.999818
646.399562	1.000084
646.743274	1.000627
647.086935	0.999309
647.430544	0.999981
647.774101	0.999438
648.117606	1.001235
648.461059	1.001161
648.804460	1.000282
649.147810	1.000055
649.491108	1.000235
649.834354	1.000515
650.177548	1.000229
650.520690	1.000085
650.863781	1.000211
651.206820	1.000736
651.549807	1.000144
651.892742	1.000825
652.235626	1.000589
652.578458	1.000532
652.921238	1.001413
653.263967	1.001539
653.606644	1.000668
653.949269	1.001035
654.291843	1.000044
654.634365	1.001134
654.976836	0.999402
655.319255	1.001179
655.661622	1.001226
656.003938	0.999956
656.346203	0.999995
656.688416	1.001021
657.030577	1.000269
657.372687	1.000478
657.714746	0.999822
658.056753	1.000005
658.398708	0.999953
658.740612	1.001115
659.082465	1.000455
659.424266	1.000326
659.766016	0.999771
660.107715	1.001347
660.449362	1.000376
660.790958	1.000014
661.132503	1.000862
661.473996	0.999374
661.815438	1.000582
662.156829	1.000191
662.498168	1.000434
662.839456	0.999229
663.180693	0.999982
663.521879	1.000375
663.863013	1.000522
664.204097	1.000312
664.545129	1.000532
664.886110	1.000493
665.227040	0.999933
665.567918	0.999811
665.908746	0.999703
666.249522	1.000031
666.590248	0.999710
666.930922	1.000308
667.271545	1.000237
667.612118	1.000282
667.952639	1.001123
668.293109	1.000149
668.633528	1.000397
668.973896	1.000841
669.314213	1.000003
669.654480	1.000227
669.994695	0.999849
670.334859	1.000247
670.674973	1.000288
671.015035	1.000455
671.355047	0.999708
671.695008	0.999640
672.034918	1.000243
672.374777	1.000016
672.714585	1.000569
673.054342	1.000809
673.394049	1.000018
673.733705	1.000028
674.073310	1.000730
674.412864	1.000539
674.752368	0.999689
675.091820	1.001488
675.431223	1.000583
675.770574	1.000090
676.109875	1.000324
676.449125	0.999970
676.788324	1.000109
677.127473	1.000713
677.466571	1.000032
677.805619	0.999641
678.144616	1.000411
678.483562	1.000639
678.822458	1.000823
679.161303	1.000154
679.500098	1.000770
679.838842	1.001432
680.177535	0.999515
680.516179	0.999607
680.854771	0.999676
681.193314	0.999631
681.531805	0.999936
681.870247	0.999516
682.208638	1.000346
682.546978	0.999673
682.885268	0.999184
683.223508	0.999480
683.561697	0.999860
683.899836	0.999449
684.237925	1.000405
684.575963	1.000136
684.913951	1.000494
685.251889	0.999915
685.589776	1.000405
685.927614	0.999925
686.265401	0.999790
686.603137	0.999862
686.940824	1.000102
687.278460	0.999877
687.616046	0.999515
687.953582	0.999887
688.291068	1.000763
688.628504	0.999891
688.965889	0.999262
689.303224	0.999302
689.640510	1.000193
689.977745	0.999115
690.314930	0.999856
690.652065	0.999469
690.989150	0.998899
691.326185	1.000509
691.663170	1.000280
692.000105	1.000070
692.336990	1.000283
692.673825	1.000210
693.010610	0.999698
693.347345	0.999794
693.684030	0.999251
694.020665	0.999511
694.357251	0.999628
694.693786	0.999887
695.030272	0.999667
695.366707	0.999772
695.703093	0.999498
696.039429	0.998307
696.375716	0.999913
696.711952	0.999471
697.048139	1.000913
697.384276	1.000383
697.720363	0.999807
698.056400	0.998770
698.392388	0.999356
698.728326	0.999555
699.064214	1.000502
699.400053	1.000728
699.735842	1.000262
700.071581	0.999899
700.407270	0.999375
700.742910	1.000223
701.078501	0.999572
701.414042	0.999756
701.749533	0.998724
702.084974	1.000379
702.420366	0.999666
702.755709	0.999622
703.091002	1.000429
703.426246	1.000682
703.761440	0.999211
704.096584	0.999530
704.431679	0.999770
704.766725	1.000367
705.101721	0.999548
705.436668	0.999249
705.771565	0.999523
706.106413	1.000128
706.441212	0.999472
706.775961	1.000011
707.110661	0.999621
707.445311	0.999433
707.779913	1.000624
708.114465	1.000323
708.448967	1.000823
708.783421	0.999596
709.117825	1.000239
709.452180	0.999972
709.786485	0.998928
710.120742	0.999361
710.454949	0.999186
710.789107	0.999698
711.123216	0.998393
711.457275	0.999106
711.791286	0.999350
712.125247	1.001202
712.459159	0.998463
712.793023	0.999184
713.126837	0.999934
713.460602	0.999654
713.794318	0.998941
714.127985	0.998447
714.461602	0.999245
714.795171	0.998943
715.128691	0.999882
715.462162	0.999657
715.795584	0.999373
716.128957	0.999610
716.462281	0.999748
716.795556	0.999775
717.128782	1.000831
717.461960	0.998408
717.795088	0.999995
718.128167	1.000211
718.461198	0.999119
718.794180	1.000595
719.127113	0.999375
719.459997	0.998919
719.792833	0.998745
720.125619	0.998519
720.458357	1.000280
720.791046	0.999976
721.123686	0.999820
721.456278	0.999011
721.788821	0.998986
722.121315	0.999880
722.453761	0.999934
722.786158	0.998936
723.118506	0.999798
723.450805	0.999398
723.783056	1.000248
724.115259	0.999597
724.447412	1.000384
724.779518	1.000094
725.111574	0.998478
725.443582	1.000104
725.775542	0.999611
726.107453	1.000170
726.439315	1.000322
726.771129	1.000410
727.102895	0.999627
727.434612	0.999997
727.766281	0.998724
728.097901	0.999437
728.429473	1.000445
728.760996	0.998783
729.092471	1.000273
729.423897	1.000202
729.755276	0.999831
730.086606	0.999114
730.417887	0.999725
730.749120	1.000811
731.080305	0.998987
731.411442	0.998837
731.742530	0.998877
732.073570	0.999646
732.404562	1.000328
732.735506	0.999472
733.066401	0.999072
733.397249	1.000062
733.728048	0.999220
734.058798	0.999402
734.389501	1.000890
734.720156	0.999591
735.050762	0.999716
735.381320	0.999149
735.711831	0.998781
736.042293	0.999674
736.372707	1.000111
736.703073	0.999032
737.033391	0.999249
737.363661	1.000595
737.693883	0.999294
738.024056	0.999094
738.354182	1.000593
738.684260	0.998616
739.014290	0.999346
739.344272	0.999104
739.674207	0.999581
740.004093	1.000309
740.333931	0.999483
740.663722	0.999776
740.993464	0.999699
741.323159	0.998995
741.652806	0.999152
741.982405	0.999803
742.311956	0.999512
742.641460	1.000074
742.970915	1.000245
743.300323	0.998176
743.629683	1.000037
743.958996	1.000569
744.288260	0.998824
744.617477	0.998946
744.946647	0.999304
745.275768	1.000135
745.604842	0.998586
745.933869	0.999349
746.262847	0.999441
746.591778	0.998411
746.920662	1.000441
747.249498	1.000146
747.578286	1.000576
747.907027	0.999457
748.235720	1.000239
748.564365	0.999668
748.892963	0.999964
749.221514	1.000479
749.550017	0.999525
749.878473	0.999501
750.206881	1.000415
750.535242	0.999293
750.863555	0.999100
751.191821	0.999714
751.520039	0.999793
751.848210	0.997237
752.176334	0.999696
752.504411	0.999688
752.832440	0.998848
753.160421	1.000119
753.488356	0.999850
753.816243	0.998986
754.144082	0.999317
754.471875	0.999800
754.799620	1.000367
755.127318	0.999273
755.454969	0.999318
755.782572	1.001310
756.110129	0.999495
756.437638	1.000978
756.765100	0.999179
757.092515	0.999438
757.419882	0.999757
757.747203	0.999074
758.074477	1.000059
758.401703	1.000179
758.728882	0.999296
759.056014	0.998981
759.383099	0.999367
759.710138	0.998975
760.037129	0.999254
760.364073	0.999749
760.690970	1.000115
761.017820	0.998852
761.344623	0.999911
761.671379	0.999494
761.998088	0.999632
762.324751	1.000623
762.651366	0.998490
762.977935	0.998995
763.304456	0.998926
763.630931	0.998808
763.957359	0.997757
764.283740	0.999076
764.610074	0.999337
764.936362	0.998918
765.262602	0.999854
765.588796	0.999403
765.914943	0.999497
766.241044	0.998417
766.567097	0.999639
766.893104	0.999878
767.219064	0.998527
767.544978	0.998113
767.870845	1.000280
768.196665	0.999114
768.522438	0.998866
768.848165	1.000260
769.173846	1.000024
769.499479	1.000582
769.825066	1.000170
770.150607	1.000607
770.476101	0.999454
770.801548	1.000638
771.126949	1.000664
771.452303	0.999369
771.777611	0.999904
772.102872	0.999368
772.428087	0.999035
772.753256	0.999980
773.078378	0.999830
773.403453	0.999587
773.728482	1.000713
774.053465	0.999356
774.378401	0.999440
774.703291	0.999755
775.028135	1.000433
775.352932	0.998257
775.677683	1.000312
776.002388	0.999577
776.327046	0.998611
776.651658	1.000674
776.976224	0.999490
777.300743	0.999486
777.625216	0.999694
777.949643	0.999446
778.274024	0.999282
778.598359	1.000378
778.922647	0.999874
779.246889	1.000204
779.571086	1.000147
779.895236	0.999347
780.219339	0.999719
780.543397	0.998502
780.867409	0.999830
781.191374	0.999667
781.515294	1.000545
781.839167	1.000771
782.162995	0.999310
782.486776	0.999553
782.810511	1.000203
783.134201	1.000137
783.457844	1.000279
783.781441	0.999715
784.104993	0.998478
784.428498	0.999730
784.751958	0.999976
785.075372	1.000825
785.398739	0.999820
785.722061	0.998995
786.045337	1.000024
786.368568	0.998569
786.691752	0.999653
787.014891	0.999374
787.337983	0.999344
787.661030	0.999766
787.984031	0.999512
788.306987	1.000290
788.629897	0.998908
788.952760	1.000266
789.275579	0.999769
789.598351	0.998332
789.921078	1.000051
790.243759	0.999413
790.566395	0.999197
790.888984	1.000732
791.211529	0.999230
791.534027	0.998865
791.856480	0.999729
792.178888	0.999116
792.501249	0.998911
792.823566	1.001069
793.145836	0.999705
793.468062	0.999282
793.790241	1.000718
794.112375	0.999144
794.434464	1.000299
794.756507	1.000262
795.078505	0.999320
795.400457	0.999951
795.722364	0.999565
796.044226	0.999597
796.366042	0.998382
796.687812	0.998354
797.009538	0.999335
797.331218	1.000702
797.652852	1.001089
797.974442	1.000120
798.295986	0.999645
798.617484	0.999447
798.938938	0.999129
799.260346	0.999033
799.581709	0.999123
799.903026	1.000035
800.224299	0.998515
800.545526	1.000008
800.866708	0.998982
801.187845	1.000612
801.508936	0.999238
801.829983	0.998860
802.150984	1.000278
802.471940	1.000078
802.792851	0.999809
803.113717	1.000859
803.434538	1.001040
803.755314	1.001813
804.076045	1.000209
804.396731	0.999281
804.717372	0.997920
805.037967	1.000684
805.358518	1.000835
805.679024	0.998366
805.999485	0.999683
806.319901	0.999355
806.640272	1.000532
806.960598	1.000201
807.280879	0.999823
807.601115	0.999480
807.921306	0.999142
808.241453	0.999443
808.561554	1.000231
808.881611	0.999619
809.201623	0.999651
809.521590	0.999768
809.841513	1.000043
810.161390	0.999275
810.481223	0.998652
810.801011	1.000206
811.120755	1.000789
811.440453	0.999655
811.760107	0.999637
812.079716	0.999626
812.399281	0.999955
812.718801	0.998830
813.038276	0.998858
813.357707	0.999512
813.677093	0.999911
813.996434	0.999428
814.315731	1.000593
814.634983	0.999748
814.954191	0.999304
815.273354	0.999501
815.592473	0.999611
815.911547	1.000270
816.230577	1.000497
816.549562	0.999409
816.868502	0.998477
817.187399	1.000256
817.506250	0.999831
817.825058	0.998458
818.143821	0.999191
818.462539	1.000031
818.781213	1.000036
819.099843	1.000171
819.418429	0.999280
819.736970	0.999419
820.055466	0.998887
820.373919	0.998990
820.692327	0.998514
821.010691	0.999178
821.329011	0.998607
821.647286	0.996864
821.965517	0.996898
822.283704	0.996878
822.601847	0.996614
822.919945	0.997052
823.237999	0.996651
823.556010	0.997538
823.873976	0.998533
824.191897	0.998786
824.509775	0.999503
824.827609	0.999370
825.145398	0.998611
825.463144	0.997361
825.780845	0.997166
826.098502	0.997575
826.416116	0.999089
826.733685	0.999381
827.051210	0.998570
827.368692	0.997996
827.686129	0.998072
828.003522	0.999460
828.320872	0.998964
828.638177	0.999070
828.955439	1.000416
829.272656	0.999852
829.589830	0.999018
829.906960	1.000232
830.224046	0.999287
830.541088	0.999737
830.858086	1.000121
831.175041	1.000040
831.491952	0.999760
831.808819	0.999420
832.125642	1.000540
832.442421	1.000036
832.759157	1.001675
833.075849	0.999932
833.392497	0.999627
833.709101	0.998121
834.025662	0.999160
834.342179	0.998478
834.658653	0.999650
834.975083	1.000026
835.291469	0.999451
835.607811	0.999113
835.924110	0.999155
836.240366	0.999832
836.556578	1.000129
836.872746	0.999959
837.188871	0.999237
837.504952	0.999132
837.820990	1.000248
838.136984	0.999502
838.452935	0.999805
838.768842	1.000168
839.084706	1.000195
839.400526	1.000110
839.716303	0.998695
840.032037	0.999983
840.347727	0.999788
840.663373	1.000043
840.978977	1.000490
841.294537	1.000069
841.610054	0.999842
841.925527	1.000491
842.240957	1.000652
842.556344	0.998744
842.871687	1.000478
843.186987	0.999510
843.502244	1.000409
843.817458	0.999230
844.132629	0.999009
844.447756	1.000586
844.762840	0.998658
845.077881	1.000737
845.392879	0.998395
845.707833	0.999933
846.022745	0.999008
846.337613	0.999519
846.652438	0.998965
846.967221	1.000269
847.281960	0.999573
847.596656	1.000024
847.911309	1.000560
848.225919	0.999491
848.540485	1.000766
848.855009	1.000620
849.169490	0.999361
849.483928	0.999674
849.798323	0.998497
850.112675	1.000102
850.426984	0.999281
850.741251	1.000672
851.055474	1.000759
851.369654	1.000072
851.683792	0.999462
851.997887	1.000372
852.311938	1.000418
852.625947	0.999192
852.939914	0.999201
853.253837	1.001028
853.567718	0.999455
853.881555	1.000096
854.195350	0.999371
854.509103	1.000131
854.822812	1.000947
855.136479	1.000450
855.450103	1.000181
855.763685	1.000434
856.077224	1.000899
856.390720	1.000256
856.704173	1.000654
857.017584	1.000076
857.330953	1.000204
857.644278	1.000992
857.957561	1.001001
858.270802	0.999941
858.584000	0.999237
858.897155	1.000101
859.210268	1.001310
859.523339	0.999942
859.836367	0.999902
860.149352	0.999240
860.462295	1.000029
860.775195	1.000103
861.088054	0.998593
861.400869	0.999043
861.713642	0.999273
862.026373	1.000086
862.339062	1.000106
862.651708	0.999481
862.964312	1.000021
863.276873	0.999752
863.589392	0.999282
863.901869	0.999807
864.214303	1.000554
864.526696	1.001115
864.839045	1.000544
865.151353	0.999086
865.463619	0.999857
865.775842	0.999694
866.088023	1.001691
866.400162	0.999407
866.712258	1.001014
867.024313	1.000052
867.336325	1.001545
867.648296	1.000047
867.960224	1.000736
868.272110	1.000675
868.583954	0.999999
868.895755	1.001324
869.207515	0.998589
869.519233	1.000965
869.830909	0.998393
870.142542	0.998157
870.454134	1.000121
870.765684	0.999522
871.077191	0.999630
871.388657	0.999981
871.700081	1.000615
872.011463	1.000551
872.322803	1.000008
872.634101	0.998929
872.945357	0.999059
873.256571	0.999964
873.567744	1.000657
873.878874	0.998569
874.189963	1.000584
874.501010	1.001658
874.812015	1.000553
875.122979	1.000052
875.433900	1.000466
875.744780	1.001092
876.055618	0.999698
876.366415	0.999834
876.677169	0.999309
876.987882	0.999673
877.298554	1.001203
877.609183	1.000172
877.919771	0.999969
878.230317	1.001194
878.540822	0.999972
878.851285	1.000433
879.161707	0.999462
879.472087	1.001439
879.782425	0.999417
880.092722	0.999913
880.402977	0.998527
880.713191	0.997908
881.023363	0.997605
881.333494	0.997710
881.643583	0.999149
881.953631	0.997175
882.263637	0.996749
882.573602	0.997829
882.883526	0.998664
883.193408	0.999295
883.503248	0.999259
883.813048	0.998198
884.122806	0.999087
884.432522	0.998414
884.742197	1.000529
885.051831	0.999585
885.361424	0.999041
885.670975	1.000448
885.980485	0.999892
886.289954	1.000109
886.599382	0.999149
886.908768	0.999495
887.218113	0.998885
887.527417	0.999734
887.836680	0.999414
888.145901	1.000026
888.455082	1.001482
888.764221	0.999767
889.073319	0.998611
889.382376	1.001989
889.691392	0.999620
890.000366	0.999522
890.309300	1.000231
890.618193	1.000518
890.927044	1.000547
891.235855	0.999850
891.544625	0.999215
891.853353	1.000052
892.162041	1.000306
892.470687	1.000257
892.779293	0.998671
893.087858	0.999663
893.396381	0.999230
893.704864	0.999354
894.013306	0.998978
894.321707	0.999249
894.630068	0.999164
894.938387	0.999525
895.246665	0.999779
895.554903	0.998695
895.863100	1.000099
896.171256	0.999320
896.479371	0.999791
896.787446	0.999623
897.095480	0.999757
897.403473	0.999467
897.711425	0.999663
898.019336	1.000199
898.327207	1.000054
898.635038	0.998681
898.942827	1.000179
899.250576	0.999283
899.558284	1.000372
899.865952	0.998744
900.173579	0.998769
900.481165	1.000001
900.788711	0.999365
901.096216	1.000338
901.403681	1.000177
901.711105	0.998781
902.018489	0.999060
902.325832	0.999586
902.633135	1.000599
902.940397	1.000563
903.247619	0.999333
903.554800	0.998818
903.861941	0.999775
904.169041	0.999817
904.476101	0.999836
904.783121	0.999389
905.090100	0.999704
905.397039	0.999888
905.703938	0.998703
906.010796	0.998830
906.317614	0.999337
906.624391	0.999868
906.931129	0.999837
907.237826	1.000303
907.544483	0.999948
907.851099	1.000534
908.157675	0.999039
908.464211	1.000640
908.770707	0.999309
909.077163	0.999946
909.383578	1.001012
909.689954	0.999174
909.996289	0.999684
910.302584	1.000215
910.608839	1.001440
910.915054	0.999293
911.221229	1.000237
911.527363	0.999494
911.833458	1.000246
912.139513	0.999267
912.445527	1.000536
912.751502	1.000489
913.057436	0.998848
913.363331	1.000881
913.669186	1.000818
913.975000	1.000384
914.280775	1.000455
914.586510	0.999750
914.892205	0.999588
915.197859	1.000672
915.503475	0.999973
915.809050	1.000101
916.114585	0.998051
916.420081	0.998891
916.725536	0.999458
917.030952	0.999135
917.336328	0.998901
917.641665	0.999023
917.946961	0.998937
918.252218	0.999769
918.557435	0.999222
918.862612	0.999154
919.167750	1.000208
919.472848	0.999901
919.777906	1.000407
920.082925	1.001060
920.387904	1.001814
920.692843	0.999972
920.997743	0.999395
921.302603	1.000256
921.607423	1.000411
921.912204	0.999922
922.216946	1.000383
922.521647	1.000077
922.826310	0.998692
923.130932	1.000894
923.435516	0.998728
923.740059	0.999271
924.044564	0.999408
924.349028	0.999253
924.653454	1.000945
924.957840	0.999534
925.262186	0.999202
925.566493	1.000185
925.870761	1.000000
926.174989	0.999715
926.479178	1.000793
926.783328	0.999566
927.087438	0.999734
927.391509	0.998836
927.695541	1.000211
927.999533	1.000419
928.303486	1.000433
928.607400	1.000075
928.911275	1.000511
929.215110	1.001060
929.518906	1.000819
929.822663	1.000219
930.126381	0.999881
930.430060	1.000575
930.733699	1.000370
931.037299	1.000543
931.340861	1.000999
931.644383	0.999166
931.947866	1.001305
932.251309	1.000079
932.554714	0.999842
932.858080	1.000887
933.161407	0.999008
933.464694	0.999640
933.767943	0.999880
934.071153	0.999976
934.374323	1.000477
934.677455	0.998795
934.980548	1.000192
935.283602	1.000685
935.586617	0.999132
935.889593	1.001700
936.192530	1.000205
936.495428	0.999664
936.798287	1.000027
937.101108	0.999411
937.403890	1.000092
937.706632	1.000756
938.009336	1.000660
938.312002	1.000596
938.614628	0.999672
938.917216	1.000318
939.219765	0.999588
939.522275	0.999740
939.824747	0.999870
940.127179	1.000505
940.429573	1.000835
940.731929	0.999970
941.034246	1.000047
941.336524	0.999097
941.638763	0.999681
941.940964	0.999179
942.243126	0.999474
942.545250	1.000346
942.847335	0.999022
943.149381	1.000349
943.451389	0.999786
943.753359	1.000058
944.055290	1.001169
944.357182	0.999693
944.659036	1.000656
944.960851	1.001020
945.262628	0.999591
945.564367	1.000732
945.866067	0.999831
946.167729	1.001365
946.469352	0.999341
946.770937	0.997804
947.072484	1.000472
947.373992	1.001047
947.675462	0.999479
947.976893	1.000127
948.278286	1.001393
948.579641	1.001840
948.880958	0.999363
949.182236	0.999936
949.483476	0.999981
949.784678	1.000252
950.085841	1.000160
950.386967	0.999145
950.688054	1.001161
950.989103	0.999355
951.290114	0.999131
951.591087	0.999225
951.892021	0.998982
952.192917	1.000833
952.493776	1.000561
952.794596	0.999484
953.095378	1.000150
953.396122	1.000833
953.696828	0.999710
953.997496	1.000851
954.298126	1.000277
954.598718	0.998893
954.899272	0.999611
955.199788	0.999653
955.500266	1.000470
955.800706	0.999251
956.101108	1.000586
956.401472	1.002383
956.701798	0.999337
957.002087	0.999608
957.302337	0.998577
957.602550	1.000053
957.902724	1.000385
958.202861	0.999267
958.502960	0.999107
958.803022	0.999929
959.103045	1.000855
959.403031	1.000564
959.702979	1.001504
960.002889	0.999624
960.302762	0.998843
960.602596	1.001006
960.902393	1.000260
961.202153	1.000586
961.501875	1.001357
961.801559	1.000668
962.101205	0.998973
962.400814	1.000945
962.700385	1.000612
962.999918	0.999938
963.299414	0.999627
963.598873	1.001534
963.898293	1.000347
964.197677	0.999073
964.497022	1.000168
964.796331	1.000523
965.095601	1.001219
965.394835	1.000575
965.694030	1.001092
965.993189	1.000585
966.292309	1.000518
966.591393	0.998737
966.890439	1.001270
967.189447	0.999807
967.488419	1.000051
967.787353	1.000468
968.086249	1.000148
968.385108	0.999864
968.683930	1.000051
968.982714	1.000504
969.281462	1.000398
969.580172	0.999765
969.878844	1.000594
970.177480	1.000161
970.476078	1.000486
970.774639	1.000485
971.073162	0.999324
971.371649	1.000044
971.670098	1.000185
971.968510	0.999795
972.266885	0.999406
972.565223	1.000267
972.863524	0.999276
973.161788	0.999286
973.460014	1.000847
973.758204	1.000142
974.056356	1.000971
974.354471	0.999359
974.652550	1.000939
974.950591	0.998160
975.248595	0.999736
975.546563	1.000954
975.844493	1.000839
976.142386	0.999591
976.440243	1.001165
976.738062	1.000208
977.035845	0.999972
977.333590	1.001373
977.631299	0.999399
977.928971	1.000108
978.226606	0.999344
978.524204	0.998984
978.821765	1.000576
979.119290	1.001356
979.416777	1.000107
979.714228	0.999923
980.011642	1.000844
980.309020	1.000019
980.606360	0.999300
980.903664	0.999905
981.200931	0.999150
981.498162	1.000949
981.795356	0.999927
982.092513	1.001234
982.389633	1.000965
982.686717	0.999820
982.983764	1.000865
983.280775	0.999657
983.577749	1.001138
983.874686	0.999620
984.171587	0.999881
984.468451	0.999607
984.765279	0.999113
985.062070	0.999514
985.358824	0.998373
985.655543	1.000460
985.952224	0.999872
986.248869	1.000092
986.545478	1.001102
986.842050	1.001186
987.138586	0.999693
987.435086	1.000709
987.731549	1.000871
988.027975	1.001124
988.324366	1.000086
988.620719	0.999784
988.917037	1.000042
989.213318	1.000735
989.509563	1.000307
989.805772	1.000986
990.101944	1.000824
990.398080	1.000276
990.694180	1.000828
990.990244	0.999561
991.286271	1.001248
991.582262	1.000227
991.878217	1.000327
992.174136	1.000629
992.470019	1.000668
992.765865	1.001198
993.061676	1.000853
993.357450	1.000667
993.653188	1.000679
993.948890	0.998676
994.244556	0.998212
994.540186	0.999250
994.835780	1.000747
995.131337	1.000191
995.426859	1.000814
995.722345	0.999049
996.017795	1.000089
996.313208	1.000351
996.608586	1.000544
996.903928	1.000455
997.199234	1.000115
997.494504	1.001099
997.789738	0.999828
998.084936	1.000643
998.380099	0.999573
998.675225	1.000679
998.970316	1.000554
999.265371	1.001050
999.560390	1.000437
999.855373	1.001073
1000.150320	1.001098
1000.445232	1.000147
1000.740108	0.999970
1001.034948	0.999783
1001.329752	1.001821
1001.624521	0.999932
1001.919254	0.999877
1002.213951	0.999879
1002.508613	0.999328
1002.803239	1.001074
1003.097829	1.000702
1003.392384	1.000233
1003.686903	1.000858
1003.981386	0.998904
1004.275834	1.000617
1004.570246	0.998875
1004.864623	1.000611
1005.158964	0.999158
1005.453270	1.000677
1005.747540	1.000484
1006.041775	0.999877
1006.335974	0.999896
1006.630138	1.001035
1006.924266	0.999402
1007.218359	0.997710
1007.512416	1.001159
1007.806438	1.000492
1008.100425	1.000253
1008.394376	0.999983
1008.688292	0.999356
1008.982172	1.000229
1009.276017	1.001581
1009.569827	1.001285
1009.863602	0.999393
1010.157341	1.000571
1010.451045	0.999541
1010.744714	1.001643
1011.038347	1.000763
1011.331945	0.999132
1011.625508	1.000333
1011.919036	0.999864
1012.212528	1.000427
1012.505986	1.000319
1012.799408	1.001028
1013.092795	0.999680
1013.386147	1.000024
1013.679464	1.000932
1013.972745	1.000203
1014.265992	0.999792
1014.559204	1.000361
1014.852380	1.001009
1015.145521	1.000043
1015.438628	0.999731
1015.731699	1.000054
1016.024736	1.000867
1016.317737	1.000504
1016.610703	1.000562
1016.903635	1.000451
1017.196531	0.998866
1017.489393	1.000262
1017.782219	0.998950
1018.075011	0.999304
1018.367768	1.000455
1018.660490	1.001023
1018.953177	1.001023
1019.245829	1.001023
