Dividing Wavelength (nm)	Counts (n)	Blue Motor Position (mm): 0.000000	Red Motor Position (mm): 43.800000	
326.493990	1.001561
326.888308	1.001561
327.282561	1.001561
327.676750	1.001031
328.070874	0.999596
328.464933	1.000557
328.858929	0.999374
329.252859	0.999550
329.646726	1.000255
330.040528	1.000202
330.434265	1.001401
330.827938	1.000853
331.221547	1.000369
331.615091	1.000320
332.008571	1.000206
332.401986	1.000344
332.795338	1.000593
333.188625	1.000338
333.581847	1.001271
333.975006	0.999045
334.368100	0.999732
334.761129	1.001179
335.154095	1.002209
335.546996	0.999375
335.939833	0.998152
336.332606	0.998030
336.725315	0.999504
337.117960	1.001142
337.510540	0.998289
337.903056	0.999818
338.295508	0.998663
338.687896	1.000588
339.080220	0.998646
339.472480	0.998951
339.864676	0.998662
340.256807	0.999834
340.648875	0.999002
341.040879	1.000115
341.432818	0.998578
341.824694	0.998510
342.216506	1.000448
342.608253	0.998740
342.999937	0.999617
343.391557	0.998014
343.783113	0.999166
344.174605	0.999655
344.566033	0.999451
344.957397	0.997556
345.348697	0.999815
345.739934	0.999031
346.131106	0.998903
346.522215	0.997473
346.913260	0.999616
347.304241	0.998865
347.695159	0.997403
348.086012	0.998502
348.476802	0.999810
348.867528	0.999939
349.258191	0.998614
349.648789	1.000733
350.039324	0.999594
350.429796	0.999939
350.820203	0.999566
351.210548	0.998827
351.600828	0.999789
351.991045	0.998859
352.381198	0.999332
352.771288	0.999080
353.161314	0.998813
353.551276	0.999354
353.941175	0.998634
354.331010	0.999361
354.720782	0.999918
355.110490	0.998545
355.500135	0.999846
355.889717	0.999142
356.279235	0.999369
356.668689	0.998860
357.058080	0.999767
357.447408	1.000559
357.836672	1.000255
358.225873	1.000912
358.615010	0.999416
359.004084	0.999788
359.393095	0.999812
359.782043	0.999293
360.170927	1.000258
360.559748	0.999791
360.948505	0.997946
361.337199	0.998425
361.725830	0.999685
362.114398	0.999462
362.502903	0.999898
362.891344	0.999019
363.279722	0.998191
363.668037	0.998871
364.056289	0.999117
364.444478	1.000657
364.832603	0.999452
365.220665	0.998299
365.608665	0.999168
365.996601	0.998930
366.384474	0.999450
366.772284	0.999126
367.160031	0.997773
367.547715	0.998952
367.935336	0.998564
368.322893	0.999403
368.710388	0.998562
369.097820	0.998359
369.485189	0.999480
369.872495	0.998063
370.259738	0.997709
370.646918	1.000385
371.034035	0.999844
371.421090	0.998911
371.808081	0.999467
372.195010	1.000043
372.581875	0.999390
372.968678	0.998854
373.355418	0.999622
373.742096	0.998971
374.128710	1.000093
374.515262	0.998950
374.901751	0.998784
375.288177	0.999369
375.674540	1.000430
376.060841	0.999048
376.447079	0.999073
376.833254	0.998799
377.219367	0.997841
377.605417	0.999826
377.991404	1.000325
378.377329	0.998282
378.763191	0.999269
379.148991	0.999386
379.534727	1.000056
379.920402	0.999678
380.306013	0.999191
380.691563	1.000468
381.077049	0.998197
381.462474	0.999416
381.847835	0.999396
382.233134	0.998354
382.618371	1.000565
383.003545	0.999436
383.388657	0.998634
383.773706	1.000660
384.158693	0.999477
384.543618	0.999879
384.928480	1.000671
385.313280	1.000031
385.698017	0.999312
386.082692	1.000374
386.467305	1.000375
386.851856	0.999960
387.236344	0.999346
387.620770	0.998484
388.005133	0.999913
388.389435	1.000611
388.773674	0.998898
389.157851	0.999488
389.541965	1.000721
389.926018	0.998862
390.310008	1.000883
390.693936	1.000263
391.077802	0.999987
391.461606	0.999877
391.845348	0.999804
392.229027	1.001192
392.612645	0.999932
392.996200	1.000823
393.379694	0.999363
393.763125	1.000685
394.146494	1.000262
394.529801	0.999913
394.913047	1.000010
395.296230	1.000144
395.679351	1.000157
396.062410	0.999599
396.445408	0.999936
396.828343	0.999667
397.211217	0.999597
397.594028	1.000652
397.976778	0.999479
398.359466	0.999263
398.742092	0.999312
399.124656	0.999505
399.507158	0.999650
399.889598	1.000049
400.271977	1.000431
400.654294	1.000117
401.036549	0.999850
401.418742	1.000539
401.800874	0.998949
402.182944	1.000247
402.564952	0.999361
402.946898	1.000376
403.328783	1.000513
403.710606	1.000700
404.092367	1.000233
404.474067	1.000531
404.855705	0.999791
405.237282	1.000153
405.618797	0.999392
406.000250	0.999232
406.381642	0.999645
406.762972	0.999970
407.144240	1.000598
407.525447	1.000891
407.906593	1.000516
408.287677	0.999759
408.668700	1.001069
409.049661	0.999299
409.430560	0.999949
409.811399	0.999523
410.192176	0.999998
410.572891	1.000390
410.953545	1.000138
411.334138	0.999299
411.714669	0.999969
412.095139	1.000117
412.475547	1.000719
412.855894	1.000362
413.236180	1.000272
413.616405	1.000111
413.996568	1.000865
414.376670	0.999510
414.756711	1.000239
415.136691	1.000223
415.516609	0.999735
415.896466	0.999697
416.276262	0.998598
416.655997	1.001092
417.035670	1.000038
417.415283	1.000480
417.794834	0.999635
418.174324	1.001202
418.553753	1.000326
418.933121	1.000141
419.312428	0.999948
419.691674	0.999944
420.070859	1.000571
420.449983	1.000622
420.829045	1.000178
421.208047	1.000802
421.586988	1.001127
421.965867	1.000690
422.344686	1.000663
422.723444	1.000845
423.102141	1.000296
423.480777	1.000837
423.859352	1.000398
424.237866	0.999678
424.616319	0.999636
424.994712	1.001196
425.373044	1.001600
425.751314	1.000282
426.129524	1.000122
426.507673	1.000351
426.885762	1.001104
427.263789	1.000809
427.641756	1.000336
428.019662	1.001000
428.397508	1.000319
428.775292	1.000429
429.153016	0.999930
429.530679	1.000937
429.908282	1.001439
430.285824	1.000003
430.663305	1.000256
431.040726	1.000154
431.418086	1.001542
431.795385	1.000663
432.172624	0.999457
432.549802	1.000517
432.926920	1.000481
433.303977	1.000065
433.680974	1.000568
434.057910	1.000135
434.434786	1.000383
434.811601	1.000086
435.188355	1.000462
435.565050	0.999288
435.941683	0.999839
436.318257	1.001372
436.694770	0.999916
437.071222	1.000163
437.447614	1.000109
437.823946	1.000481
438.200218	1.000026
438.576429	1.000862
438.952580	1.001437
439.328670	0.999825
439.704700	1.000487
440.080670	1.001295
440.456580	1.000276
440.832429	1.000558
441.208218	1.000939
441.583947	1.000962
441.959616	1.000442
442.335224	1.000370
442.710773	1.000904
443.086261	1.000429
443.461689	1.000596
443.837057	1.000198
444.212365	1.000649
444.587612	1.000190
444.962800	1.000331
445.337927	1.000873
445.712995	1.001115
446.088002	1.001156
446.462949	1.000489
446.837837	1.000341
447.212664	1.001035
447.587431	1.001133
447.962139	1.000487
448.336786	1.001193
448.711374	1.000991
449.085901	1.000668
449.460369	1.001404
449.834776	1.001136
450.209124	1.000830
450.583412	1.000780
450.957640	1.001033
451.331808	1.000709
451.705917	1.000255
452.079965	0.999747
452.453954	1.000374
452.827883	1.000404
453.201752	1.000679
453.575562	1.001619
453.949311	1.000511
454.323001	1.000752
454.696632	1.000533
455.070202	1.000674
455.443713	0.999612
455.817164	1.000900
456.190556	1.000799
456.563888	1.000937
456.937160	1.000273
457.310373	1.000756
457.683526	0.999823
458.056619	1.000445
458.429653	1.001252
458.802628	1.000830
459.175542	1.000044
459.548398	1.000764
459.921194	1.000915
460.293930	1.000721
460.666607	1.000545
461.039224	0.999967
461.411782	1.000884
461.784280	1.000394
462.156719	1.001017
462.529099	1.000321
462.901419	1.000529
463.273680	1.000433
463.645882	1.000711
464.018024	1.001291
464.390106	1.000553
464.762130	1.001507
465.134094	1.000648
465.505999	1.001077
465.877845	1.000874
466.249631	1.001187
466.621358	1.001186
466.993026	1.000868
467.364634	1.000661
467.736184	1.001040
468.107674	1.000985
468.479105	1.000196
468.850477	1.001087
469.221790	1.001018
469.593043	1.000866
469.964238	1.001661
470.335373	1.000561
470.706449	1.000522
471.077467	1.001271
471.448425	1.001178
471.819324	1.001498
472.190164	1.000295
472.560945	1.001068
472.931667	1.000609
473.302330	1.000032
473.672934	1.000886
474.043479	1.001351
474.413965	1.001007
474.784393	1.000993
475.154761	1.000366
475.525070	1.000306
475.895321	1.001239
476.265513	1.000989
476.635645	1.000474
477.005719	1.001421
477.375734	1.000799
477.745691	1.001291
478.115588	1.000846
478.485427	1.001013
478.855207	1.001577
479.224928	1.001225
479.594591	1.001029
479.964194	1.001002
480.333739	1.000715
480.703226	1.000401
481.072653	1.001888
481.442022	1.001160
481.811333	1.001089
482.180584	1.001348
482.549777	1.000923
482.918912	1.001389
483.287988	1.001489
483.657005	1.000749
484.025964	1.001345
484.394864	1.002049
484.763706	1.001178
485.132489	1.001307
485.501213	1.000860
485.869879	1.000842
486.238487	1.001175
486.607036	1.001252
486.975527	1.000053
487.343959	1.000730
487.712333	1.000819
488.080648	1.000884
488.448905	1.001063
488.817104	1.001699
489.185244	1.001193
489.553326	1.000995
489.921350	1.001057
490.289315	1.001652
490.657222	1.001402
491.025070	1.001794
491.392861	1.001313
491.760593	1.001589
492.128267	1.000653
492.495883	1.001485
492.863440	1.001506
493.230939	1.001011
493.598380	1.000942
493.965763	1.001057
494.333088	1.001393
494.700354	1.000948
495.067563	1.001020
495.434713	1.000318
495.801805	1.001666
496.168839	1.000645
496.535815	1.000776
496.902733	1.000923
497.269593	1.000967
497.636395	1.001170
498.003139	1.000780
498.369825	1.001933
498.736453	1.000760
499.103023	0.999964
499.469535	1.000522
499.835989	1.000619
500.202385	1.000757
500.568723	1.001251
500.935003	1.001084
501.301226	1.000843
501.667390	1.000719
502.033497	1.000680
502.399546	1.001196
502.765537	1.000334
503.131470	1.000952
503.497345	1.001083
503.863163	1.001793
504.228923	1.000999
504.594625	1.001245
504.960269	1.001776
505.325856	1.001234
505.691385	1.000778
506.056856	1.000768
506.422270	1.000753
506.787625	1.001444
507.152924	1.001192
507.518164	1.000662
507.883347	1.001143
508.248472	1.000861
508.613540	1.000720
508.978550	1.001442
509.343503	1.001260
509.708398	1.001175
510.073236	1.001232
510.438016	1.001313
510.802738	1.001125
511.167403	1.000741
511.532010	1.000988
511.896561	1.000407
512.261053	1.001565
512.625488	1.001275
512.989866	1.000853
513.354186	1.001208
513.718449	1.001186
514.082655	1.000983
514.446803	1.000620
514.810894	1.001128
515.174927	1.000901
515.538904	1.001169
515.902822	1.001039
516.266684	1.001334
516.630488	1.001878
516.994235	1.000325
517.357925	1.001203
517.721558	1.001208
518.085133	1.000816
518.448651	1.001342
518.812112	1.001275
519.175516	1.000841
519.538863	1.001784
519.902152	1.000205
520.265385	1.001543
520.628560	1.000282
520.991678	1.001635
521.354739	1.001053
521.717743	1.000857
522.080690	1.001245
522.443580	1.001142
522.806413	1.000826
523.169189	1.000412
523.531908	1.000272
523.894569	1.000886
524.257174	1.000874
524.619722	1.001369
524.982213	1.001207
525.344647	1.001214
525.707025	1.000184
526.069345	1.000218
526.431608	1.000749
526.793815	1.000926
527.155964	1.000701
527.518057	1.001359
527.880093	1.001064
528.242072	1.000308
528.603995	1.000518
528.965860	1.001072
529.327669	1.000828
529.689421	1.000996
530.051117	1.001692
530.412755	1.000552
530.774337	1.001347
531.135862	1.000970
531.497331	1.000555
531.858743	1.000708
532.220098	1.001267
532.581396	1.000813
532.942638	1.001196
533.303824	1.001284
533.664953	1.000588
534.026025	1.000969
534.387040	1.000623
534.747999	1.000426
535.108902	1.000624
535.469748	1.000235
535.830537	1.000790
536.191270	0.999899
536.551947	1.000217
536.912567	1.000276
537.273131	1.001158
537.633638	1.000044
537.994089	1.000300
538.354483	1.000578
538.714821	1.000413
539.075103	1.000117
539.435328	1.000629
539.795497	1.000606
540.155609	0.999202
540.515665	1.000174
540.875665	1.000600
541.235609	0.999712
541.595496	1.000481
541.955328	0.999531
542.315102	1.000247
542.674821	1.000494
543.034483	0.999516
543.394090	1.000294
543.753640	1.001071
544.113134	1.000317
544.472571	1.000236
544.831953	1.000154
545.191278	0.999920
545.550548	1.000565
545.909761	0.999494
546.268918	1.000806
546.628019	1.000279
546.987064	0.999850
547.346053	0.999630
547.704986	1.000379
548.063863	0.999931
548.422684	0.999793
548.781449	1.000422
549.140158	0.999907
549.498811	0.999455
549.857408	0.999614
550.215949	1.000306
550.574434	0.999799
550.932864	1.000428
551.291237	1.000098
551.649555	0.999912
552.007817	0.999872
552.366022	0.999425
552.724173	1.000446
553.082267	0.999797
553.440305	0.999886
553.798288	0.999764
554.156215	0.999947
554.514086	0.999630
554.871902	0.999344
555.229661	0.999569
555.587365	0.999957
555.945014	1.000700
556.302606	0.999461
556.660143	1.000082
557.017625	0.999498
557.375050	1.000033
557.732421	0.999664
558.089735	0.999639
558.446994	1.000505
558.804197	1.000242
559.161345	1.000758
559.518437	1.000758
559.875474	0.999324
560.232455	0.999438
560.589381	1.000674
560.946251	0.999223
561.303065	1.000128
561.659825	1.000157
562.016528	0.999530
562.373177	1.000108
562.729770	0.999700
563.086307	0.999681
563.442789	0.999896
563.799216	1.000194
564.155587	0.999661
564.511904	0.999238
564.868164	0.999806
565.224370	0.999824
565.580520	1.000077
565.936615	1.000073
566.292654	0.999641
566.648638	0.999794
567.004567	0.999405
567.360441	1.000276
567.716260	1.000431
568.072023	0.999850
568.427732	1.000155
568.783385	1.000210
569.138982	1.000339
569.494525	0.999497
569.850013	0.999810
570.205445	0.999461
570.560823	1.000208
570.916145	0.999628
571.271412	0.999590
571.626625	0.999624
571.981782	0.999731
572.336884	1.000265
572.691931	0.999800
573.046923	0.999819
573.401860	0.999946
573.756743	0.999147
574.111570	1.000455
574.466342	1.000228
574.821059	1.000357
575.175722	0.999479
575.530330	1.000249
575.884882	1.000092
576.239380	1.000262
576.593823	0.999901
576.948211	1.000043
577.302544	0.999465
577.656823	0.999989
578.011047	1.000371
578.365216	1.000206
578.719330	0.999075
579.073389	0.999980
579.427394	0.999839
579.781344	1.000209
580.135239	1.000039
580.489080	0.999663
580.842866	0.999971
581.196597	0.999401
581.550273	0.999309
581.903895	0.999906
582.257463	0.999744
582.610975	0.999695
582.964434	0.999873
583.317837	1.001223
583.671186	0.999162
584.024481	0.999620
584.377721	1.000156
584.730906	0.999669
585.084037	0.999904
585.437113	1.000251
585.790135	0.999784
586.143103	0.999716
586.496016	1.000793
586.848874	0.999543
587.201679	0.999253
587.554428	0.999611
587.907124	0.999592
588.259765	0.999515
588.612352	1.000016
588.964884	0.999920
589.317362	1.000353
589.669786	1.000161
590.022155	1.000314
590.374470	0.999702
590.726731	0.999203
591.078937	0.998845
591.431090	0.999232
591.783188	0.999972
592.135232	1.000228
592.487222	1.000193
592.839157	0.999825
593.191038	0.999951
593.542866	0.999970
593.894639	0.999917
594.246358	0.999060
594.598022	0.999940
594.949633	0.999652
595.301190	0.999252
595.652692	0.999853
596.004141	1.001121
596.355535	0.999631
596.706876	0.999326
597.058162	1.000013
597.409395	1.000276
597.760573	0.999202
598.111698	0.999617
598.462768	0.998879
598.813785	0.999021
599.164748	0.998848
599.515657	0.999849
599.866511	0.999034
600.217312	0.999282
600.568060	0.999070
600.918753	0.999669
601.269392	0.999273
601.619978	0.998872
601.970510	0.998835
602.320988	1.000008
602.671412	0.999142
603.021783	0.999313
603.372100	0.999986
603.722363	1.000789
604.072572	0.999463
604.422728	0.999466
604.772830	0.998552
605.122878	0.998796
605.472872	0.999592
605.822813	0.998878
606.172701	0.999480
606.522534	0.999861
606.872314	0.999217
607.222041	0.999240
607.571714	0.999847
607.921333	0.998514
608.270899	0.998896
608.620411	0.999459
608.969870	0.999837
609.319276	0.998639
609.668627	0.998981
610.017926	0.998592
610.367171	0.998090
610.716362	0.997951
611.065500	0.998701
611.414585	0.998582
611.763616	0.998909
612.112594	0.998747
612.461518	0.998686
612.810389	0.998336
613.159207	0.999047
613.507971	0.998119
613.856682	0.998343
614.205340	0.998594
614.553945	0.997725
614.902496	0.998242
615.250994	0.998239
615.599439	0.998916
615.947830	0.998543
616.296169	0.998340
616.644454	0.998470
616.992686	0.997899
617.340864	0.998050
617.688990	0.998007
618.037063	0.998895
618.385082	0.997904
618.733048	0.998312
619.080961	0.998100
619.428821	0.998302
619.776628	0.997790
620.124382	0.997588
620.472083	0.996804
620.819731	0.998323
621.167326	0.998019
621.514868	0.997742
621.862357	0.997686
622.209793	0.998796
622.557176	0.995960
622.904506	0.997439
623.251783	0.996849
623.599007	0.997140
623.946179	0.997052
624.293297	0.997417
624.640363	0.996706
624.987376	0.996441
625.334336	0.997190
625.681243	0.996690
626.028097	0.997519
626.374899	0.996767
626.721647	0.997126
627.068343	0.997157
627.414987	0.996525
627.761577	0.996466
628.108115	0.996513
628.454600	0.996288
628.801032	0.996164
629.147412	0.996698
629.493739	0.996001
629.840014	0.996081
630.186236	0.995863
630.532405	0.995836
630.878521	0.995933
631.224585	0.995396
631.570597	0.995380
631.916556	0.994804
632.262462	0.995056
632.608316	0.995240
632.954117	0.993936
633.299866	0.994973
633.645562	0.994381
633.991206	0.994646
634.336797	0.994981
634.682336	0.994151
635.027823	0.994704
635.373257	0.994738
635.718639	0.994044
636.063968	0.993006
636.409245	0.994716
636.754470	0.993424
637.099642	0.994008
637.444762	0.994153
637.789829	0.993207
638.134845	0.993261
638.479808	0.992627
638.824719	0.993168
639.169577	0.991920
639.514383	0.992149
639.859137	0.992109
640.203839	0.992497
640.548489	0.991482
640.893086	0.992206
641.237632	0.991788
641.582125	0.989798
641.926566	0.990374
642.270955	0.991060
642.615292	0.991492
642.959576	0.989847
643.303809	0.989826
643.647990	0.989020
643.992118	0.990008
644.336195	0.990417
644.680219	0.988413
645.024192	0.989377
645.368112	0.987920
645.711981	0.987512
646.055797	0.987279
646.399562	0.986413
646.743274	0.985013
647.086935	0.985688
647.430544	0.984495
647.774101	0.984207
648.117606	0.984055
648.461059	0.983390
648.804460	0.982627
649.147810	0.983097
649.491108	0.983380
649.834354	0.982558
650.177548	0.983953
650.520690	0.982986
650.863781	0.982214
651.206820	0.982072
651.549807	0.980990
651.892742	0.981095
652.235626	0.980742
652.578458	0.980651
652.921238	0.979837
653.263967	0.980208
653.606644	0.980607
653.949269	0.978672
654.291843	0.978683
654.634365	0.978062
654.976836	0.977212
655.319255	0.977041
655.661622	0.976774
656.003938	0.974786
656.346203	0.975229
656.688416	0.975609
657.030577	0.975035
657.372687	0.974264
657.714746	0.974199
658.056753	0.974111
658.398708	0.973469
658.740612	0.973560
659.082465	0.971815
659.424266	0.971119
659.766016	0.969649
660.107715	0.969716
660.449362	0.968906
660.790958	0.969435
661.132503	0.967362
661.473996	0.966712
661.815438	0.966423
662.156829	0.965542
662.498168	0.965591
662.839456	0.964772
663.180693	0.964997
663.521879	0.964142
663.863013	0.963244
664.204097	0.962697
664.545129	0.961707
664.886110	0.960807
665.227040	0.959039
665.567918	0.959037
665.908746	0.958553
666.249522	0.956467
666.590248	0.956646
666.930922	0.955991
667.271545	0.954493
667.612118	0.955059
667.952639	0.954019
668.293109	0.952695
668.633528	0.953052
668.973896	0.952652
669.314213	0.951547
669.654480	0.950359
669.994695	0.950330
670.334859	0.950304
670.674973	0.947744
671.015035	0.948946
671.355047	0.946372
671.695008	0.946657
672.034918	0.946917
672.374777	0.945120
672.714585	0.944437
673.054342	0.943545
673.394049	0.942970
673.733705	0.940423
674.073310	0.939368
674.412864	0.940896
674.752368	0.939296
675.091820	0.939088
675.431223	0.939467
675.770574	0.938123
676.109875	0.937651
676.449125	0.937482
676.788324	0.935852
677.127473	0.936821
677.466571	0.937111
677.805619	0.935589
678.144616	0.934518
678.483562	0.933945
678.822458	0.934105
679.161303	0.932452
679.500098	0.931195
679.838842	0.932817
680.177535	0.931332
680.516179	0.929636
680.854771	0.928895
681.193314	0.926675
681.531805	0.924196
681.870247	0.919337
682.208638	0.916608
682.546978	0.916590
682.885268	0.916508
683.223508	0.916583
683.561697	0.916116
683.899836	0.915821
684.237925	0.915706
684.575963	0.914662
684.913951	0.914908
685.251889	0.911987
685.589776	0.912335
685.927614	0.912547
686.265401	0.908766
686.603137	0.908526
686.940824	0.905161
687.278460	0.904726
687.616046	0.902301
687.953582	0.900231
688.291068	0.900192
688.628504	0.897488
688.965889	0.897114
689.303224	0.897422
689.640510	0.897115
689.977745	0.897978
690.314930	0.899133
690.652065	0.899131
690.989150	0.900137
691.326185	0.899472
691.663170	0.899561
692.000105	0.901073
692.336990	0.902303
692.673825	0.899711
693.010610	0.902226
693.347345	0.902971
693.684030	0.900447
694.020665	0.901385
694.357251	0.902780
694.693786	0.901862
695.030272	0.902194
695.366707	0.900952
695.703093	0.901443
696.039429	0.900299
696.375716	0.898140
696.711952	0.899363
697.048139	0.900121
697.384276	0.898247
697.720363	0.895724
698.056400	0.894249
698.392388	0.895810
698.728326	0.897724
699.064214	0.898384
699.400053	0.896076
699.735842	0.895292
700.071581	0.895693
700.407270	0.895310
700.742910	0.896118
701.078501	0.897521
701.414042	0.895548
701.749533	0.893899
702.084974	0.898587
702.420366	0.892940
702.755709	0.895283
703.091002	0.897693
703.426246	0.892110
703.761440	0.895962
704.096584	0.897318
704.431679	0.893251
704.766725	0.892787
705.101721	0.892488
705.436668	0.889010
705.771565	0.894019
706.106413	0.892333
706.441212	0.887617
706.775961	0.885261
707.110661	0.888581
707.445311	0.887740
707.779913	0.883062
708.114465	0.883511
708.448967	0.883038
708.783421	0.878063
709.117825	0.875618
709.452180	0.876199
709.786485	0.874279
710.120742	0.869097
710.454949	0.869888
710.789107	0.867272
711.123216	0.862181
711.457275	0.864208
711.791286	0.858889
712.125247	0.856210
712.459159	0.862960
712.793023	0.861919
713.126837	0.856262
713.460602	0.855983
713.794318	0.863428
714.127985	0.858570
714.461602	0.859583
714.795171	0.862148
715.128691	0.862822
715.462162	0.863907
715.795584	0.863783
716.128957	0.864285
716.462281	0.868206
716.795556	0.867128
717.128782	0.865959
717.461960	0.868908
717.795088	0.866898
718.128167	0.869154
718.461198	0.873157
718.794180	0.872422
719.127113	0.870680
719.459997	0.871680
719.792833	0.873952
720.125619	0.873632
720.458357	0.875150
720.791046	0.873729
721.123686	0.873955
721.456278	0.877239
721.788821	0.874087
722.121315	0.874433
722.453761	0.878412
722.786158	0.873309
723.118506	0.872257
723.450805	0.876785
723.783056	0.875035
724.115259	0.869761
724.447412	0.869204
724.779518	0.871829
725.111574	0.869295
725.443582	0.867485
725.775542	0.867511
726.107453	0.864255
726.439315	0.863041
726.771129	0.864199
727.102895	0.861636
727.434612	0.855830
727.766281	0.855448
728.097901	0.855709
728.429473	0.855274
728.760996	0.852883
729.092471	0.853011
729.423897	0.853651
729.755276	0.850293
730.086606	0.850352
730.417887	0.849736
730.749120	0.845307
731.080305	0.837472
731.411442	0.836501
731.742530	0.839604
732.073570	0.838831
732.404562	0.833445
732.735506	0.832586
733.066401	0.835337
733.397249	0.838201
733.728048	0.841939
734.058798	0.843469
734.389501	0.847043
734.720156	0.852110
735.050762	0.855201
735.381320	0.853688
735.711831	0.859012
736.042293	0.860750
736.372707	0.855316
736.703073	0.856948
737.033391	0.860766
737.363661	0.858175
737.693883	0.853731
738.024056	0.854111
738.354182	0.856394
738.684260	0.848636
739.014290	0.847337
739.344272	0.847686
739.674207	0.844430
740.004093	0.844697
740.333931	0.844521
740.663722	0.842375
740.993464	0.843581
741.323159	0.844607
741.652806	0.844610
741.982405	0.846510
742.311956	0.847639
742.641460	0.848112
742.970915	0.847929
743.300323	0.851314
743.629683	0.855156
743.958996	0.852899
744.288260	0.854056
744.617477	0.856133
744.946647	0.857127
745.275768	0.858205
745.604842	0.856227
745.933869	0.863750
746.262847	0.862454
746.591778	0.855479
746.920662	0.860277
747.249498	0.864773
747.578286	0.857143
747.907027	0.855918
748.235720	0.859664
748.564365	0.854049
748.892963	0.852320
749.221514	0.854431
749.550017	0.858844
749.878473	0.855081
750.206881	0.858275
750.535242	0.858750
750.863555	0.856711
751.191821	0.857294
751.520039	0.860431
751.848210	0.863440
752.176334	0.855766
752.504411	0.854647
752.832440	0.860052
753.160421	0.863292
753.488356	0.860585
753.816243	0.856838
754.144082	0.863264
754.471875	0.865219
754.799620	0.862103
755.127318	0.861871
755.454969	0.860839
755.782572	0.860611
756.110129	0.864431
756.437638	0.866000
756.765100	0.861662
757.092515	0.860125
757.419882	0.859268
757.747203	0.862644
758.074477	0.863493
758.401703	0.860641
758.728882	0.857226
759.056014	0.855766
759.383099	0.855497
759.710138	0.857290
760.037129	0.856328
760.364073	0.848678
760.690970	0.850840
761.017820	0.855298
761.344623	0.851747
761.671379	0.845001
761.998088	0.837119
762.324751	0.825114
762.651366	0.806182
762.977935	0.775054
763.304456	0.744499
763.630931	0.732830
763.957359	0.753048
764.283740	0.777141
764.610074	0.788568
764.936362	0.802254
765.262602	0.818959
765.588796	0.830536
765.914943	0.840168
766.241044	0.851357
766.567097	0.853477
766.893104	0.858787
767.219064	0.861899
767.544978	0.865316
767.870845	0.873938
768.196665	0.876102
768.522438	0.871907
768.848165	0.871551
769.173846	0.877563
769.499479	0.880814
769.825066	0.882405
770.150607	0.886072
770.476101	0.880708
770.801548	0.879401
771.126949	0.888577
771.452303	0.890222
771.777611	0.889574
772.102872	0.887643
772.428087	0.891397
772.753256	0.893385
773.078378	0.893155
773.403453	0.899122
773.728482	0.902424
774.053465	0.896235
774.378401	0.898476
774.703291	0.904509
775.028135	0.904014
775.352932	0.903916
775.677683	0.904822
776.002388	0.905351
776.327046	0.904264
776.651658	0.906840
776.976224	0.909274
777.300743	0.909241
777.625216	0.910402
777.949643	0.910675
778.274024	0.910661
778.598359	0.911335
778.922647	0.910899
779.246889	0.911001
779.571086	0.913752
779.895236	0.915995
780.219339	0.913261
780.543397	0.910443
780.867409	0.909392
781.191374	0.912356
781.515294	0.911581
781.839167	0.910733
782.162995	0.913560
782.486776	0.910897
782.810511	0.910715
783.134201	0.912756
783.457844	0.910876
783.781441	0.911584
784.104993	0.916077
784.428498	0.915799
784.751958	0.913319
785.075372	0.914769
785.398739	0.918310
785.722061	0.914026
786.045337	0.910745
786.368568	0.914890
786.691752	0.916770
787.014891	0.905640
787.337983	0.900759
787.661030	0.898119
787.984031	0.887512
788.306987	0.877834
788.629897	0.877977
788.952760	0.879489
789.275579	0.881520
789.598351	0.890910
789.921078	0.900355
790.243759	0.899078
790.566395	0.903004
790.888984	0.907373
791.211529	0.911263
791.534027	0.912845
791.856480	0.914212
792.178888	0.918081
792.501249	0.919898
792.823566	0.920608
793.145836	0.919803
793.468062	0.921699
793.790241	0.921732
794.112375	0.918485
794.434464	0.915817
794.756507	0.915226
795.078505	0.917044
795.400457	0.913496
795.722364	0.904994
796.044226	0.900245
796.366042	0.900696
796.687812	0.902366
797.009538	0.898640
797.331218	0.899817
797.652852	0.904197
797.974442	0.905586
798.295986	0.905370
798.617484	0.906987
798.938938	0.910388
799.260346	0.912963
799.581709	0.915531
799.903026	0.915938
800.224299	0.915509
800.545526	0.918151
800.866708	0.921773
801.187845	0.925315
801.508936	0.924553
801.829983	0.922756
802.150984	0.923427
802.471940	0.928087
802.792851	0.927304
803.113717	0.928703
803.434538	0.927008
803.755314	0.928358
804.076045	0.930367
804.396731	0.929057
804.717372	0.929876
805.037967	0.930662
805.358518	0.929818
805.679024	0.927906
805.999485	0.927277
806.319901	0.928457
806.640272	0.929192
806.960598	0.927631
807.280879	0.925105
807.601115	0.924326
807.921306	0.926865
808.241453	0.926549
808.561554	0.923900
808.881611	0.924496
809.201623	0.926394
809.521590	0.925678
809.841513	0.925635
810.161390	0.925147
810.481223	0.926110
810.801011	0.929073
811.120755	0.930682
811.440453	0.928601
811.760107	0.927088
812.079716	0.926258
812.399281	0.929987
812.718801	0.931390
813.038276	0.931854
813.357707	0.931014
813.677093	0.928288
813.996434	0.930495
814.315731	0.933148
814.634983	0.932383
814.954191	0.930917
815.273354	0.928845
815.592473	0.926321
815.911547	0.926709
816.230577	0.924157
816.549562	0.921753
816.868502	0.923380
817.187399	0.920451
817.506250	0.914896
817.825058	0.916690
818.143821	0.913744
818.462539	0.909339
818.781213	0.902304
819.099843	0.894390
819.418429	0.884038
819.736970	0.871051
820.055466	0.855833
820.373919	0.834820
820.692327	0.806899
821.010691	0.781429
821.329011	0.730461
821.647286	0.662609
821.965517	0.595074
822.283704	0.569261
822.601847	0.564745
822.919945	0.578453
823.237999	0.588016
823.556010	0.613146
823.873976	0.652569
824.191897	0.687685
824.509775	0.717688
824.827609	0.752434
825.145398	0.769233
825.463144	0.770624
825.780845	0.757745
826.098502	0.744811
826.416116	0.714149
826.733685	0.683017
827.051210	0.676441
827.368692	0.683534
827.686129	0.707359
828.003522	0.746947
828.320872	0.783491
828.638177	0.818847
828.955439	0.844401
829.272656	0.860387
829.589830	0.874308
829.906960	0.886907
830.224046	0.896083
830.541088	0.904040
830.858086	0.909152
831.175041	0.912488
831.491952	0.910978
831.808819	0.908190
832.125642	0.902162
832.442421	0.891162
832.759157	0.874697
833.075849	0.839124
833.392497	0.789294
833.709101	0.756997
834.025662	0.764360
834.342179	0.788147
834.658653	0.817836
834.975083	0.845428
835.291469	0.864756
835.607811	0.883603
835.924110	0.896814
836.240366	0.910046
836.556578	0.922352
836.872746	0.927555
837.188871	0.932888
837.504952	0.936908
837.820990	0.939628
838.136984	0.942315
838.452935	0.945741
838.768842	0.946030
839.084706	0.941700
839.400526	0.920437
839.716303	0.890300
840.032037	0.872642
840.347727	0.874907
840.663373	0.888890
840.978977	0.904015
841.294537	0.921920
841.610054	0.935197
841.925527	0.941272
842.240957	0.947246
842.556344	0.952570
842.871687	0.958816
843.186987	0.961380
843.502244	0.960213
843.817458	0.961528
844.132629	0.965810
844.447756	0.969866
844.762840	0.970163
845.077881	0.968315
845.392879	0.968234
845.707833	0.971116
846.022745	0.973087
846.337613	0.972769
846.652438	0.974134
846.967221	0.972023
847.281960	0.973383
847.596656	0.975642
847.911309	0.973333
848.225919	0.976790
848.540485	0.975593
848.855009	0.976592
849.169490	0.976631
849.483928	0.975722
849.798323	0.977296
850.112675	0.976737
850.426984	0.977118
850.741251	0.977878
851.055474	0.977903
851.369654	0.974149
851.683792	0.976931
851.997887	0.976678
852.311938	0.978321
852.625947	0.977524
852.939914	0.974468
853.253837	0.976635
853.567718	0.978174
853.881555	0.977313
854.195350	0.975204
854.509103	0.976668
854.822812	0.977066
855.136479	0.977814
855.450103	0.976806
855.763685	0.975235
856.077224	0.976195
856.390720	0.977097
856.704173	0.977911
857.017584	0.976072
857.330953	0.973469
857.644278	0.975914
857.957561	0.975405
858.270802	0.975910
858.584000	0.974669
858.897155	0.974330
859.210268	0.975253
859.523339	0.974225
859.836367	0.976724
860.149352	0.977847
860.462295	0.976007
860.775195	0.977033
861.088054	0.976079
861.400869	0.977155
861.713642	0.977232
862.026373	0.977635
862.339062	0.978256
862.651708	0.975610
862.964312	0.975119
863.276873	0.977125
863.589392	0.975585
863.901869	0.974406
864.214303	0.973970
864.526696	0.972332
864.839045	0.971940
865.151353	0.969179
865.463619	0.970324
865.775842	0.970399
866.088023	0.970593
866.400162	0.970218
866.712258	0.970462
867.024313	0.970544
867.336325	0.971628
867.648296	0.970790
867.960224	0.970943
868.272110	0.969448
868.583954	0.971801
868.895755	0.972388
869.207515	0.969092
869.519233	0.967807
869.830909	0.969585
870.142542	0.971193
870.454134	0.969854
870.765684	0.969255
871.077191	0.966198
871.388657	0.968202
871.700081	0.967080
872.011463	0.967625
872.322803	0.966798
872.634101	0.965913
872.945357	0.963572
873.256571	0.963728
873.567744	0.962601
873.878874	0.962584
874.189963	0.962417
874.501010	0.961221
874.812015	0.960155
875.122979	0.959769
875.433900	0.963524
875.744780	0.963502
876.055618	0.961164
876.366415	0.960018
876.677169	0.959436
876.987882	0.962227
877.298554	0.962121
877.609183	0.958842
877.919771	0.954803
878.230317	0.953051
878.540822	0.951249
878.851285	0.947036
879.161707	0.940703
879.472087	0.930035
879.782425	0.917001
880.092722	0.887976
880.402977	0.845347
880.713191	0.799549
881.023363	0.759413
881.333494	0.736244
881.643583	0.711070
881.953631	0.706065
882.263637	0.727002
882.573602	0.758900
882.883526	0.777114
883.193408	0.794279
883.503248	0.811522
883.813048	0.833330
884.122806	0.859072
884.432522	0.878763
884.742197	0.894473
885.051831	0.903124
885.361424	0.911014
885.670975	0.920578
885.980485	0.929743
886.289954	0.934419
886.599382	0.938293
886.908768	0.942375
887.218113	0.946758
887.527417	0.950666
887.836680	0.953296
888.145901	0.954492
888.455082	0.956886
888.764221	0.960021
889.073319	0.963790
889.382376	0.961780
889.691392	0.962989
890.000366	0.962350
890.309300	0.963858
890.618193	0.963665
890.927044	0.961267
891.235855	0.960758
891.544625	0.961557
891.853353	0.962874
892.162041	0.958738
892.470687	0.953821
892.779293	0.948678
893.087858	0.947774
893.396381	0.942113
893.704864	0.930379
894.013306	0.908997
894.321707	0.886878
894.630068	0.875865
894.938387	0.872385
895.246665	0.871834
895.554903	0.882655
895.863100	0.893210
896.171256	0.907551
896.479371	0.924032
896.787446	0.935459
897.095480	0.939869
897.403473	0.942505
897.711425	0.945136
898.019336	0.952113
898.327207	0.954479
898.635038	0.956068
898.942827	0.956211
899.250576	0.958212
899.558284	0.962206
899.865952	0.964170
900.173579	0.964619
900.481165	0.965717
900.788711	0.967886
901.096216	0.971014
901.403681	0.969721
901.711105	0.971424
902.018489	0.973026
902.325832	0.970076
902.633135	0.970889
902.940397	0.965428
903.247619	0.955899
903.554800	0.933662
903.861941	0.901863
904.169041	0.873622
904.476101	0.858336
904.783121	0.859325
905.090100	0.872817
905.397039	0.889715
905.703938	0.907422
906.010796	0.924836
906.317614	0.938464
906.624391	0.947459
906.931129	0.955567
907.237826	0.962177
907.544483	0.968376
907.851099	0.971938
908.157675	0.975115
908.464211	0.978038
908.770707	0.979012
909.077163	0.980409
909.383578	0.981357
909.689954	0.981610
909.996289	0.982425
910.302584	0.984037
910.608839	0.986223
910.915054	0.985106
911.221229	0.983958
911.527363	0.983299
911.833458	0.983098
912.139513	0.983179
912.445527	0.981175
912.751502	0.980849
913.057436	0.978150
913.363331	0.977985
913.669186	0.973791
913.975000	0.969207
914.280775	0.965927
914.586510	0.960243
914.892205	0.949881
915.197859	0.931897
915.503475	0.908521
915.809050	0.891279
916.114585	0.888936
916.420081	0.887556
916.725536	0.882810
917.030952	0.889528
917.336328	0.900166
917.641665	0.912182
917.946961	0.925904
918.252218	0.935520
918.557435	0.943115
918.862612	0.950463
919.167750	0.953774
919.472848	0.957492
919.777906	0.962570
920.082925	0.968677
920.387904	0.971096
920.692843	0.971625
920.997743	0.972276
921.302603	0.975462
921.607423	0.976616
921.912204	0.979809
922.216946	0.978823
922.521647	0.979718
922.826310	0.982461
923.130932	0.982765
923.435516	0.984314
923.740059	0.985131
924.044564	0.983850
924.349028	0.985469
924.653454	0.988258
924.957840	0.990673
925.262186	0.989755
925.566493	0.988397
925.870761	0.990100
926.174989	0.991514
926.479178	0.993964
926.783328	0.993274
927.087438	0.992945
927.391509	0.992113
927.695541	0.994224
927.999533	0.994237
928.303486	0.993999
928.607400	0.995041
928.911275	0.993332
929.215110	0.994946
929.518906	0.995035
929.822663	0.993639
930.126381	0.996562
930.430060	0.995187
930.733699	0.994405
931.037299	0.993710
931.340861	0.994274
931.644383	0.993786
931.947866	0.993697
932.251309	0.994807
932.554714	0.994723
932.858080	0.994213
933.161407	0.994996
933.464694	0.994894
933.767943	0.993906
934.071153	0.995081
934.374323	0.995576
934.677455	0.995282
934.980548	0.995577
935.283602	0.994489
935.586617	0.994770
935.889593	0.994673
936.192530	0.993419
936.495428	0.995157
936.798287	0.995890
937.101108	0.995245
937.403890	0.991961
937.706632	0.993065
938.009336	0.991806
938.312002	0.991521
938.614628	0.990234
938.917216	0.988948
939.219765	0.987050
939.522275	0.988419
939.824747	0.987787
940.127179	0.988400
940.429573	0.988107
940.731929	0.989650
941.034246	0.988688
941.336524	0.990945
941.638763	0.991342
941.940964	0.991493
942.243126	0.991716
942.545250	0.991754
942.847335	0.993213
943.149381	0.992284
943.451389	0.992047
943.753359	0.991666
944.055290	0.995133
944.357182	0.994826
944.659036	0.992402
944.960851	0.992762
945.262628	0.994386
945.564367	0.994877
945.866067	0.993209
946.167729	0.993728
946.469352	0.993881
946.770937	0.992005
947.072484	0.995583
947.373992	0.994364
947.675462	0.995181
947.976893	0.994396
948.278286	0.994411
948.579641	0.995959
948.880958	0.995472
949.182236	0.994520
949.483476	0.994394
949.784678	0.993855
950.085841	0.995283
950.386967	0.994679
950.688054	0.995085
950.989103	0.995971
951.290114	0.993101
951.591087	0.993438
951.892021	0.993893
952.192917	0.992590
952.493776	0.992304
952.794596	0.991884
953.095378	0.993121
953.396122	0.991586
953.696828	0.991631
953.997496	0.994527
954.298126	0.994422
954.598718	0.994376
954.899272	0.995457
955.199788	0.994315
955.500266	0.996574
955.800706	0.997367
956.101108	0.996709
956.401472	0.996717
956.701798	0.996582
957.002087	0.996260
957.302337	0.996597
957.602550	0.998086
957.902724	0.997132
958.202861	0.997592
958.502960	0.998327
958.803022	0.996437
959.103045	0.999503
959.403031	0.998517
959.702979	0.997529
960.002889	0.998699
960.302762	0.997861
960.602596	0.999410
960.902393	0.997753
961.202153	0.999803
961.501875	0.999719
961.801559	0.998547
962.101205	0.997933
962.400814	0.999020
962.700385	0.999862
962.999918	0.997864
963.299414	0.999278
963.598873	0.998311
963.898293	0.998348
964.197677	0.998267
964.497022	0.999282
964.796331	0.999279
965.095601	0.999280
965.394835	0.999190
965.694030	0.998953
965.993189	0.999025
966.292309	0.998728
966.591393	1.000533
966.890439	0.999200
967.189447	0.999501
967.488419	0.999193
967.787353	0.998434
968.086249	0.998057
968.385108	0.999586
968.683930	0.998589
968.982714	0.998811
969.281462	1.000410
969.580172	0.998282
969.878844	0.999590
970.177480	0.999243
970.476078	0.999213
970.774639	0.999297
971.073162	0.999219
971.371649	0.998846
971.670098	0.998506
971.968510	0.999589
972.266885	0.998500
972.565223	0.998437
972.863524	0.998069
973.161788	0.998088
973.460014	0.999525
973.758204	0.997523
974.056356	0.997982
974.354471	0.996836
974.652550	0.998508
974.950591	0.999180
975.248595	0.998777
975.546563	0.999577
975.844493	0.998764
976.142386	1.000539
976.440243	1.000132
976.738062	0.999529
977.035845	1.000408
977.333590	0.998655
977.631299	0.999878
977.928971	0.997403
978.226606	0.998375
978.524204	0.998391
978.821765	1.000390
979.119290	0.998817
979.416777	0.998638
979.714228	1.000331
980.011642	0.998392
980.309020	0.999749
980.606360	0.999157
980.903664	0.999025
981.200931	0.998600
981.498162	0.998312
981.795356	0.997183
982.092513	0.997176
982.389633	0.997701
982.686717	0.994109
982.983764	0.994080
983.280775	0.994231
983.577749	0.993772
983.874686	0.993797
984.171587	0.994690
984.468451	0.997346
984.765279	0.997544
985.062070	0.997014
985.358824	0.997184
985.655543	0.997529
985.952224	0.998247
986.248869	0.997923
986.545478	0.999183
986.842050	1.000041
987.138586	0.997417
987.435086	0.999417
987.731549	1.001038
988.027975	1.000259
988.324366	0.999367
988.620719	0.998788
988.917037	0.998009
989.213318	1.000348
989.509563	0.999855
989.805772	0.999654
990.101944	1.000397
990.398080	0.998847
990.694180	0.999143
990.990244	0.999613
991.286271	1.000023
991.582262	1.000343
991.878217	1.000058
992.174136	1.000983
992.470019	1.000774
992.765865	1.000237
993.061676	0.999456
993.357450	0.999796
993.653188	0.998373
993.948890	0.999004
994.244556	1.000132
994.540186	0.998324
994.835780	0.998522
995.131337	0.998927
995.426859	0.998571
995.722345	0.999247
996.017795	0.998274
996.313208	0.997749
996.608586	0.998215
996.903928	0.998523
997.199234	0.998257
997.494504	0.998369
997.789738	0.997396
998.084936	0.998295
998.380099	0.998987
998.675225	0.999443
998.970316	1.000455
999.265371	0.999546
999.560390	0.999597
999.855373	1.000556
1000.150320	0.999263
1000.445232	0.999256
1000.740108	0.998972
1001.034948	0.999959
1001.329752	1.000130
1001.624521	0.999907
1001.919254	0.999924
1002.213951	1.000408
1002.508613	0.999408
1002.803239	1.001479
1003.097829	0.999945
1003.392384	1.000039
1003.686903	1.000482
1003.981386	0.999768
1004.275834	1.000928
1004.570246	1.001559
1004.864623	0.999708
1005.158964	1.001570
1005.453270	0.999759
1005.747540	0.999245
1006.041775	0.998921
1006.335974	1.000214
1006.630138	1.000600
1006.924266	1.001242
1007.218359	1.002120
1007.512416	1.000827
1007.806438	1.000555
1008.100425	1.001235
1008.394376	1.000657
1008.688292	0.999929
1008.982172	1.002178
1009.276017	1.001162
1009.569827	0.999250
1009.863602	1.000951
1010.157341	1.000412
1010.451045	0.999282
1010.744714	0.999370
1011.038347	1.000296
1011.331945	1.000686
1011.625508	0.997915
1011.919036	0.999409
1012.212528	0.999677
1012.505986	0.998784
1012.799408	1.000772
1013.092795	0.999490
1013.386147	1.000330
1013.679464	1.001283
1013.972745	0.999947
1014.265992	0.998753
1014.559204	1.000156
1014.852380	0.999503
1015.145521	0.999514
1015.438628	1.001009
1015.731699	0.999591
1016.024736	0.999534
1016.317737	1.001035
1016.610703	1.000108
1016.903635	1.000477
1017.196531	1.000548
1017.489393	1.001031
1017.782219	0.999545
1018.075011	0.998928
1018.367768	1.001063
1018.660490	1.001464
1018.953177	1.001464
1019.245829	1.001464
